# E (eV)   ldos(E)   pdos(E)   
  -5.150  0.168E-07  0.168E-07
  -5.140  0.187E-07  0.187E-07
  -5.130  0.209E-07  0.209E-07
  -5.120  0.233E-07  0.233E-07
  -5.110  0.260E-07  0.260E-07
  -5.100  0.289E-07  0.289E-07
  -5.090  0.322E-07  0.322E-07
  -5.080  0.358E-07  0.358E-07
  -5.070  0.399E-07  0.399E-07
  -5.060  0.443E-07  0.443E-07
  -5.050  0.493E-07  0.493E-07
  -5.040  0.547E-07  0.547E-07
  -5.030  0.608E-07  0.608E-07
  -5.020  0.675E-07  0.675E-07
  -5.010  0.749E-07  0.749E-07
  -5.000  0.831E-07  0.831E-07
  -4.990  0.921E-07  0.921E-07
  -4.980  0.102E-06  0.102E-06
  -4.970  0.113E-06  0.113E-06
  -4.960  0.125E-06  0.125E-06
  -4.950  0.139E-06  0.139E-06
  -4.940  0.153E-06  0.153E-06
  -4.930  0.170E-06  0.170E-06
  -4.920  0.188E-06  0.188E-06
  -4.910  0.207E-06  0.207E-06
  -4.900  0.229E-06  0.229E-06
  -4.890  0.253E-06  0.253E-06
  -4.880  0.279E-06  0.279E-06
  -4.870  0.308E-06  0.308E-06
  -4.860  0.339E-06  0.339E-06
  -4.850  0.374E-06  0.374E-06
  -4.840  0.412E-06  0.412E-06
  -4.830  0.454E-06  0.454E-06
  -4.820  0.500E-06  0.500E-06
  -4.810  0.550E-06  0.550E-06
  -4.800  0.605E-06  0.605E-06
  -4.790  0.665E-06  0.665E-06
  -4.780  0.731E-06  0.731E-06
  -4.770  0.803E-06  0.803E-06
  -4.760  0.881E-06  0.881E-06
  -4.750  0.967E-06  0.967E-06
  -4.740  0.106E-05  0.106E-05
  -4.730  0.116E-05  0.116E-05
  -4.720  0.128E-05  0.128E-05
  -4.710  0.140E-05  0.140E-05
  -4.700  0.153E-05  0.153E-05
  -4.690  0.168E-05  0.168E-05
  -4.680  0.183E-05  0.183E-05
  -4.670  0.201E-05  0.201E-05
  -4.660  0.219E-05  0.219E-05
  -4.650  0.240E-05  0.240E-05
  -4.640  0.262E-05  0.262E-05
  -4.630  0.286E-05  0.286E-05
  -4.620  0.312E-05  0.312E-05
  -4.610  0.341E-05  0.341E-05
  -4.600  0.372E-05  0.372E-05
  -4.590  0.405E-05  0.405E-05
  -4.580  0.442E-05  0.442E-05
  -4.570  0.481E-05  0.481E-05
  -4.560  0.524E-05  0.524E-05
  -4.550  0.570E-05  0.570E-05
  -4.540  0.621E-05  0.621E-05
  -4.530  0.675E-05  0.675E-05
  -4.520  0.734E-05  0.734E-05
  -4.510  0.797E-05  0.797E-05
  -4.500  0.866E-05  0.866E-05
  -4.490  0.940E-05  0.940E-05
  -4.480  0.102E-04  0.102E-04
  -4.470  0.111E-04  0.111E-04
  -4.460  0.120E-04  0.120E-04
  -4.450  0.130E-04  0.130E-04
  -4.440  0.141E-04  0.141E-04
  -4.430  0.153E-04  0.153E-04
  -4.420  0.165E-04  0.165E-04
  -4.410  0.179E-04  0.179E-04
  -4.400  0.193E-04  0.193E-04
  -4.390  0.209E-04  0.209E-04
  -4.380  0.226E-04  0.226E-04
  -4.370  0.244E-04  0.244E-04
  -4.360  0.263E-04  0.263E-04
  -4.350  0.284E-04  0.284E-04
  -4.340  0.307E-04  0.307E-04
  -4.330  0.331E-04  0.331E-04
  -4.320  0.357E-04  0.357E-04
  -4.310  0.384E-04  0.384E-04
  -4.300  0.414E-04  0.414E-04
  -4.290  0.446E-04  0.446E-04
  -4.280  0.480E-04  0.480E-04
  -4.270  0.516E-04  0.516E-04
  -4.260  0.555E-04  0.555E-04
  -4.250  0.597E-04  0.597E-04
  -4.240  0.641E-04  0.641E-04
  -4.230  0.688E-04  0.688E-04
  -4.220  0.739E-04  0.739E-04
  -4.210  0.793E-04  0.793E-04
  -4.200  0.851E-04  0.851E-04
  -4.190  0.912E-04  0.912E-04
  -4.180  0.978E-04  0.978E-04
  -4.170  0.105E-03  0.105E-03
  -4.160  0.112E-03  0.112E-03
  -4.150  0.120E-03  0.120E-03
  -4.140  0.128E-03  0.128E-03
  -4.130  0.137E-03  0.137E-03
  -4.120  0.147E-03  0.147E-03
  -4.110  0.157E-03  0.157E-03
  -4.100  0.168E-03  0.168E-03
  -4.090  0.179E-03  0.179E-03
  -4.080  0.191E-03  0.191E-03
  -4.070  0.204E-03  0.204E-03
  -4.060  0.218E-03  0.218E-03
  -4.050  0.232E-03  0.232E-03
  -4.040  0.247E-03  0.247E-03
  -4.030  0.263E-03  0.263E-03
  -4.020  0.280E-03  0.280E-03
  -4.010  0.298E-03  0.298E-03
  -4.000  0.317E-03  0.317E-03
  -3.990  0.337E-03  0.337E-03
  -3.980  0.359E-03  0.359E-03
  -3.970  0.381E-03  0.381E-03
  -3.960  0.405E-03  0.405E-03
  -3.950  0.430E-03  0.430E-03
  -3.940  0.456E-03  0.456E-03
  -3.930  0.484E-03  0.484E-03
  -3.920  0.513E-03  0.513E-03
  -3.910  0.544E-03  0.544E-03
  -3.900  0.576E-03  0.576E-03
  -3.890  0.610E-03  0.610E-03
  -3.880  0.646E-03  0.646E-03
  -3.870  0.684E-03  0.684E-03
  -3.860  0.723E-03  0.723E-03
  -3.850  0.765E-03  0.765E-03
  -3.840  0.809E-03  0.809E-03
  -3.830  0.854E-03  0.854E-03
  -3.820  0.902E-03  0.902E-03
  -3.810  0.952E-03  0.952E-03
  -3.800  0.101E-02  0.101E-02
  -3.790  0.106E-02  0.106E-02
  -3.780  0.112E-02  0.112E-02
  -3.770  0.118E-02  0.118E-02
  -3.760  0.124E-02  0.124E-02
  -3.750  0.131E-02  0.131E-02
  -3.740  0.138E-02  0.138E-02
  -3.730  0.145E-02  0.145E-02
  -3.720  0.152E-02  0.152E-02
  -3.710  0.160E-02  0.160E-02
  -3.700  0.168E-02  0.168E-02
  -3.690  0.177E-02  0.177E-02
  -3.680  0.186E-02  0.186E-02
  -3.670  0.195E-02  0.195E-02
  -3.660  0.205E-02  0.205E-02
  -3.650  0.215E-02  0.215E-02
  -3.640  0.225E-02  0.225E-02
  -3.630  0.236E-02  0.236E-02
  -3.620  0.247E-02  0.247E-02
  -3.610  0.259E-02  0.259E-02
  -3.600  0.271E-02  0.271E-02
  -3.590  0.284E-02  0.284E-02
  -3.580  0.297E-02  0.297E-02
  -3.570  0.310E-02  0.310E-02
  -3.560  0.324E-02  0.324E-02
  -3.550  0.339E-02  0.339E-02
  -3.540  0.354E-02  0.354E-02
  -3.530  0.369E-02  0.369E-02
  -3.520  0.386E-02  0.386E-02
  -3.510  0.402E-02  0.402E-02
  -3.500  0.419E-02  0.419E-02
  -3.490  0.437E-02  0.437E-02
  -3.480  0.456E-02  0.456E-02
  -3.470  0.474E-02  0.474E-02
  -3.460  0.494E-02  0.494E-02
  -3.450  0.514E-02  0.514E-02
  -3.440  0.535E-02  0.535E-02
  -3.430  0.556E-02  0.556E-02
  -3.420  0.578E-02  0.578E-02
  -3.410  0.601E-02  0.601E-02
  -3.400  0.624E-02  0.624E-02
  -3.390  0.648E-02  0.648E-02
  -3.380  0.673E-02  0.673E-02
  -3.370  0.698E-02  0.698E-02
  -3.360  0.724E-02  0.724E-02
  -3.350  0.751E-02  0.751E-02
  -3.340  0.778E-02  0.778E-02
  -3.330  0.806E-02  0.806E-02
  -3.320  0.835E-02  0.835E-02
  -3.310  0.864E-02  0.864E-02
  -3.300  0.894E-02  0.894E-02
  -3.290  0.925E-02  0.925E-02
  -3.280  0.957E-02  0.957E-02
  -3.270  0.989E-02  0.989E-02
  -3.260  0.102E-01  0.102E-01
  -3.250  0.106E-01  0.106E-01
  -3.240  0.109E-01  0.109E-01
  -3.230  0.112E-01  0.112E-01
  -3.220  0.116E-01  0.116E-01
  -3.210  0.120E-01  0.120E-01
  -3.200  0.123E-01  0.123E-01
  -3.190  0.127E-01  0.127E-01
  -3.180  0.131E-01  0.131E-01
  -3.170  0.135E-01  0.135E-01
  -3.160  0.139E-01  0.139E-01
  -3.150  0.143E-01  0.143E-01
  -3.140  0.147E-01  0.147E-01
  -3.130  0.151E-01  0.151E-01
  -3.120  0.156E-01  0.156E-01
  -3.110  0.160E-01  0.160E-01
  -3.100  0.164E-01  0.164E-01
  -3.090  0.169E-01  0.169E-01
  -3.080  0.173E-01  0.173E-01
  -3.070  0.178E-01  0.178E-01
  -3.060  0.182E-01  0.182E-01
  -3.050  0.187E-01  0.187E-01
  -3.040  0.192E-01  0.192E-01
  -3.030  0.196E-01  0.196E-01
  -3.020  0.201E-01  0.201E-01
  -3.010  0.206E-01  0.206E-01
  -3.000  0.211E-01  0.211E-01
  -2.990  0.216E-01  0.216E-01
  -2.980  0.221E-01  0.221E-01
  -2.970  0.226E-01  0.226E-01
  -2.960  0.231E-01  0.231E-01
  -2.950  0.236E-01  0.236E-01
  -2.940  0.241E-01  0.241E-01
  -2.930  0.246E-01  0.246E-01
  -2.920  0.251E-01  0.251E-01
  -2.910  0.256E-01  0.256E-01
  -2.900  0.262E-01  0.262E-01
  -2.890  0.267E-01  0.267E-01
  -2.880  0.272E-01  0.272E-01
  -2.870  0.277E-01  0.277E-01
  -2.860  0.283E-01  0.283E-01
  -2.850  0.288E-01  0.288E-01
  -2.840  0.293E-01  0.293E-01
  -2.830  0.298E-01  0.298E-01
  -2.820  0.304E-01  0.304E-01
  -2.810  0.309E-01  0.309E-01
  -2.800  0.314E-01  0.314E-01
  -2.790  0.319E-01  0.319E-01
  -2.780  0.325E-01  0.325E-01
  -2.770  0.330E-01  0.330E-01
  -2.760  0.335E-01  0.335E-01
  -2.750  0.340E-01  0.340E-01
  -2.740  0.345E-01  0.345E-01
  -2.730  0.351E-01  0.351E-01
  -2.720  0.356E-01  0.356E-01
  -2.710  0.361E-01  0.361E-01
  -2.700  0.366E-01  0.366E-01
  -2.690  0.371E-01  0.371E-01
  -2.680  0.376E-01  0.376E-01
  -2.670  0.381E-01  0.381E-01
  -2.660  0.386E-01  0.386E-01
  -2.650  0.391E-01  0.391E-01
  -2.640  0.395E-01  0.395E-01
  -2.630  0.400E-01  0.400E-01
  -2.620  0.405E-01  0.405E-01
  -2.610  0.409E-01  0.409E-01
  -2.600  0.414E-01  0.414E-01
  -2.590  0.419E-01  0.419E-01
  -2.580  0.423E-01  0.423E-01
  -2.570  0.427E-01  0.427E-01
  -2.560  0.432E-01  0.432E-01
  -2.550  0.436E-01  0.436E-01
  -2.540  0.440E-01  0.440E-01
  -2.530  0.444E-01  0.444E-01
  -2.520  0.449E-01  0.449E-01
  -2.510  0.453E-01  0.453E-01
  -2.500  0.456E-01  0.456E-01
  -2.490  0.460E-01  0.460E-01
  -2.480  0.464E-01  0.464E-01
  -2.470  0.468E-01  0.468E-01
  -2.460  0.471E-01  0.471E-01
  -2.450  0.475E-01  0.475E-01
  -2.440  0.479E-01  0.479E-01
  -2.430  0.482E-01  0.482E-01
  -2.420  0.485E-01  0.485E-01
  -2.410  0.488E-01  0.488E-01
  -2.400  0.492E-01  0.492E-01
  -2.390  0.495E-01  0.495E-01
  -2.380  0.498E-01  0.498E-01
  -2.370  0.501E-01  0.501E-01
  -2.360  0.503E-01  0.503E-01
  -2.350  0.506E-01  0.506E-01
  -2.340  0.509E-01  0.509E-01
  -2.330  0.512E-01  0.512E-01
  -2.320  0.514E-01  0.514E-01
  -2.310  0.516E-01  0.516E-01
  -2.300  0.519E-01  0.519E-01
  -2.290  0.521E-01  0.521E-01
  -2.280  0.523E-01  0.523E-01
  -2.270  0.525E-01  0.525E-01
  -2.260  0.528E-01  0.528E-01
  -2.250  0.530E-01  0.530E-01
  -2.240  0.531E-01  0.531E-01
  -2.230  0.533E-01  0.533E-01
  -2.220  0.535E-01  0.535E-01
  -2.210  0.537E-01  0.537E-01
  -2.200  0.538E-01  0.538E-01
  -2.190  0.540E-01  0.540E-01
  -2.180  0.541E-01  0.541E-01
  -2.170  0.543E-01  0.543E-01
  -2.160  0.544E-01  0.544E-01
  -2.150  0.546E-01  0.546E-01
  -2.140  0.547E-01  0.547E-01
  -2.130  0.548E-01  0.548E-01
  -2.120  0.549E-01  0.549E-01
  -2.110  0.550E-01  0.550E-01
  -2.100  0.551E-01  0.551E-01
  -2.090  0.552E-01  0.552E-01
  -2.080  0.553E-01  0.553E-01
  -2.070  0.554E-01  0.554E-01
  -2.060  0.555E-01  0.555E-01
  -2.050  0.556E-01  0.556E-01
  -2.040  0.556E-01  0.556E-01
  -2.030  0.557E-01  0.557E-01
  -2.020  0.558E-01  0.558E-01
  -2.010  0.558E-01  0.558E-01
  -2.000  0.559E-01  0.559E-01
  -1.990  0.559E-01  0.559E-01
  -1.980  0.560E-01  0.560E-01
  -1.970  0.560E-01  0.560E-01
  -1.960  0.561E-01  0.561E-01
  -1.950  0.561E-01  0.561E-01
  -1.940  0.561E-01  0.561E-01
  -1.930  0.562E-01  0.562E-01
  -1.920  0.562E-01  0.562E-01
  -1.910  0.562E-01  0.562E-01
  -1.900  0.562E-01  0.562E-01
  -1.890  0.563E-01  0.563E-01
  -1.880  0.563E-01  0.563E-01
  -1.870  0.563E-01  0.563E-01
  -1.860  0.563E-01  0.563E-01
  -1.850  0.563E-01  0.563E-01
  -1.840  0.563E-01  0.563E-01
  -1.830  0.564E-01  0.564E-01
  -1.820  0.564E-01  0.564E-01
  -1.810  0.564E-01  0.564E-01
  -1.800  0.564E-01  0.564E-01
  -1.790  0.564E-01  0.564E-01
  -1.780  0.564E-01  0.564E-01
  -1.770  0.564E-01  0.564E-01
  -1.760  0.564E-01  0.564E-01
  -1.750  0.564E-01  0.564E-01
  -1.740  0.564E-01  0.564E-01
  -1.730  0.564E-01  0.564E-01
  -1.720  0.564E-01  0.564E-01
  -1.710  0.564E-01  0.564E-01
  -1.700  0.564E-01  0.564E-01
  -1.690  0.564E-01  0.564E-01
  -1.680  0.564E-01  0.564E-01
  -1.670  0.564E-01  0.564E-01
  -1.660  0.564E-01  0.564E-01
  -1.650  0.564E-01  0.564E-01
  -1.640  0.564E-01  0.564E-01
  -1.630  0.564E-01  0.564E-01
  -1.620  0.564E-01  0.564E-01
  -1.610  0.564E-01  0.564E-01
  -1.600  0.564E-01  0.564E-01
  -1.590  0.564E-01  0.564E-01
  -1.580  0.564E-01  0.564E-01
  -1.570  0.564E-01  0.564E-01
  -1.560  0.564E-01  0.564E-01
  -1.550  0.565E-01  0.565E-01
  -1.540  0.565E-01  0.565E-01
  -1.530  0.565E-01  0.565E-01
  -1.520  0.565E-01  0.565E-01
  -1.510  0.565E-01  0.565E-01
  -1.500  0.565E-01  0.565E-01
  -1.490  0.565E-01  0.565E-01
  -1.480  0.565E-01  0.565E-01
  -1.470  0.565E-01  0.565E-01
  -1.460  0.565E-01  0.565E-01
  -1.450  0.565E-01  0.565E-01
  -1.440  0.565E-01  0.565E-01
  -1.430  0.566E-01  0.566E-01
  -1.420  0.566E-01  0.566E-01
  -1.410  0.566E-01  0.566E-01
  -1.400  0.566E-01  0.566E-01
  -1.390  0.566E-01  0.566E-01
  -1.380  0.566E-01  0.566E-01
  -1.370  0.567E-01  0.567E-01
  -1.360  0.567E-01  0.567E-01
  -1.350  0.567E-01  0.567E-01
  -1.340  0.567E-01  0.567E-01
  -1.330  0.567E-01  0.567E-01
  -1.320  0.568E-01  0.568E-01
  -1.310  0.568E-01  0.568E-01
  -1.300  0.568E-01  0.568E-01
  -1.290  0.568E-01  0.568E-01
  -1.280  0.568E-01  0.568E-01
  -1.270  0.569E-01  0.569E-01
  -1.260  0.569E-01  0.569E-01
  -1.250  0.569E-01  0.569E-01
  -1.240  0.569E-01  0.569E-01
  -1.230  0.570E-01  0.570E-01
  -1.220  0.570E-01  0.570E-01
  -1.210  0.570E-01  0.570E-01
  -1.200  0.571E-01  0.571E-01
  -1.190  0.571E-01  0.571E-01
  -1.180  0.571E-01  0.571E-01
  -1.170  0.572E-01  0.572E-01
  -1.160  0.572E-01  0.572E-01
  -1.150  0.572E-01  0.572E-01
  -1.140  0.573E-01  0.573E-01
  -1.130  0.573E-01  0.573E-01
  -1.120  0.573E-01  0.573E-01
  -1.110  0.574E-01  0.574E-01
  -1.100  0.574E-01  0.574E-01
  -1.090  0.574E-01  0.574E-01
  -1.080  0.575E-01  0.575E-01
  -1.070  0.575E-01  0.575E-01
  -1.060  0.575E-01  0.575E-01
  -1.050  0.576E-01  0.576E-01
  -1.040  0.576E-01  0.576E-01
  -1.030  0.577E-01  0.577E-01
  -1.020  0.577E-01  0.577E-01
  -1.010  0.577E-01  0.577E-01
  -1.000  0.578E-01  0.578E-01
  -0.990  0.578E-01  0.578E-01
  -0.980  0.579E-01  0.579E-01
  -0.970  0.579E-01  0.579E-01
  -0.960  0.580E-01  0.580E-01
  -0.950  0.580E-01  0.580E-01
  -0.940  0.580E-01  0.580E-01
  -0.930  0.581E-01  0.581E-01
  -0.920  0.581E-01  0.581E-01
  -0.910  0.582E-01  0.582E-01
  -0.900  0.582E-01  0.582E-01
  -0.890  0.583E-01  0.583E-01
  -0.880  0.583E-01  0.583E-01
  -0.870  0.584E-01  0.584E-01
  -0.860  0.584E-01  0.584E-01
  -0.850  0.584E-01  0.584E-01
  -0.840  0.585E-01  0.585E-01
  -0.830  0.585E-01  0.585E-01
  -0.820  0.586E-01  0.586E-01
  -0.810  0.586E-01  0.586E-01
  -0.800  0.587E-01  0.587E-01
  -0.790  0.587E-01  0.587E-01
  -0.780  0.588E-01  0.588E-01
  -0.770  0.588E-01  0.588E-01
  -0.760  0.589E-01  0.589E-01
  -0.750  0.589E-01  0.589E-01
  -0.740  0.590E-01  0.590E-01
  -0.730  0.590E-01  0.590E-01
  -0.720  0.591E-01  0.591E-01
  -0.710  0.591E-01  0.591E-01
  -0.700  0.592E-01  0.592E-01
  -0.690  0.592E-01  0.592E-01
  -0.680  0.593E-01  0.593E-01
  -0.670  0.593E-01  0.593E-01
  -0.660  0.594E-01  0.594E-01
  -0.650  0.594E-01  0.594E-01
  -0.640  0.595E-01  0.595E-01
  -0.630  0.596E-01  0.596E-01
  -0.620  0.596E-01  0.596E-01
  -0.610  0.597E-01  0.597E-01
  -0.600  0.597E-01  0.597E-01
  -0.590  0.598E-01  0.598E-01
  -0.580  0.598E-01  0.598E-01
  -0.570  0.599E-01  0.599E-01
  -0.560  0.599E-01  0.599E-01
  -0.550  0.600E-01  0.600E-01
  -0.540  0.600E-01  0.600E-01
  -0.530  0.601E-01  0.601E-01
  -0.520  0.602E-01  0.602E-01
  -0.510  0.602E-01  0.602E-01
  -0.500  0.603E-01  0.603E-01
  -0.490  0.603E-01  0.603E-01
  -0.480  0.604E-01  0.604E-01
  -0.470  0.604E-01  0.604E-01
  -0.460  0.605E-01  0.605E-01
  -0.450  0.605E-01  0.605E-01
  -0.440  0.606E-01  0.606E-01
  -0.430  0.607E-01  0.607E-01
  -0.420  0.607E-01  0.607E-01
  -0.410  0.608E-01  0.608E-01
  -0.400  0.608E-01  0.608E-01
  -0.390  0.609E-01  0.609E-01
  -0.380  0.610E-01  0.610E-01
  -0.370  0.610E-01  0.610E-01
  -0.360  0.611E-01  0.611E-01
  -0.350  0.611E-01  0.611E-01
  -0.340  0.612E-01  0.612E-01
  -0.330  0.612E-01  0.612E-01
  -0.320  0.613E-01  0.613E-01
  -0.310  0.614E-01  0.614E-01
  -0.300  0.614E-01  0.614E-01
  -0.290  0.615E-01  0.615E-01
  -0.280  0.615E-01  0.615E-01
  -0.270  0.616E-01  0.616E-01
  -0.260  0.617E-01  0.617E-01
  -0.250  0.617E-01  0.617E-01
  -0.240  0.618E-01  0.618E-01
  -0.230  0.618E-01  0.618E-01
  -0.220  0.619E-01  0.619E-01
  -0.210  0.620E-01  0.620E-01
  -0.200  0.620E-01  0.620E-01
  -0.190  0.621E-01  0.621E-01
  -0.180  0.622E-01  0.622E-01
  -0.170  0.622E-01  0.622E-01
  -0.160  0.623E-01  0.623E-01
  -0.150  0.623E-01  0.623E-01
  -0.140  0.624E-01  0.624E-01
  -0.130  0.625E-01  0.625E-01
  -0.120  0.625E-01  0.625E-01
  -0.110  0.626E-01  0.626E-01
  -0.100  0.627E-01  0.627E-01
  -0.090  0.627E-01  0.627E-01
  -0.080  0.628E-01  0.628E-01
  -0.070  0.628E-01  0.628E-01
  -0.060  0.629E-01  0.629E-01
  -0.050  0.630E-01  0.630E-01
  -0.040  0.630E-01  0.630E-01
  -0.030  0.631E-01  0.631E-01
  -0.020  0.632E-01  0.632E-01
  -0.010  0.632E-01  0.632E-01
   0.000  0.633E-01  0.633E-01
   0.010  0.634E-01  0.634E-01
   0.020  0.634E-01  0.634E-01
   0.030  0.635E-01  0.635E-01
   0.040  0.636E-01  0.636E-01
   0.050  0.636E-01  0.636E-01
   0.060  0.637E-01  0.637E-01
   0.070  0.637E-01  0.637E-01
   0.080  0.638E-01  0.638E-01
   0.090  0.639E-01  0.639E-01
   0.100  0.639E-01  0.639E-01
   0.110  0.640E-01  0.640E-01
   0.120  0.641E-01  0.641E-01
   0.130  0.641E-01  0.641E-01
   0.140  0.642E-01  0.642E-01
   0.150  0.643E-01  0.643E-01
   0.160  0.643E-01  0.643E-01
   0.170  0.644E-01  0.644E-01
   0.180  0.645E-01  0.645E-01
   0.190  0.646E-01  0.646E-01
   0.200  0.646E-01  0.646E-01
   0.210  0.647E-01  0.647E-01
   0.220  0.648E-01  0.648E-01
   0.230  0.648E-01  0.648E-01
   0.240  0.649E-01  0.649E-01
   0.250  0.650E-01  0.650E-01
   0.260  0.650E-01  0.650E-01
   0.270  0.651E-01  0.651E-01
   0.280  0.652E-01  0.652E-01
   0.290  0.652E-01  0.652E-01
   0.300  0.653E-01  0.653E-01
   0.310  0.654E-01  0.654E-01
   0.320  0.654E-01  0.654E-01
   0.330  0.655E-01  0.655E-01
   0.340  0.656E-01  0.656E-01
   0.350  0.657E-01  0.657E-01
   0.360  0.657E-01  0.657E-01
   0.370  0.658E-01  0.658E-01
   0.380  0.659E-01  0.659E-01
   0.390  0.659E-01  0.659E-01
   0.400  0.660E-01  0.660E-01
   0.410  0.661E-01  0.661E-01
   0.420  0.661E-01  0.661E-01
   0.430  0.662E-01  0.662E-01
   0.440  0.663E-01  0.663E-01
   0.450  0.664E-01  0.664E-01
   0.460  0.664E-01  0.664E-01
   0.470  0.665E-01  0.665E-01
   0.480  0.666E-01  0.666E-01
   0.490  0.666E-01  0.666E-01
   0.500  0.667E-01  0.667E-01
   0.510  0.668E-01  0.668E-01
   0.520  0.669E-01  0.669E-01
   0.530  0.669E-01  0.669E-01
   0.540  0.670E-01  0.670E-01
   0.550  0.671E-01  0.671E-01
   0.560  0.671E-01  0.671E-01
   0.570  0.672E-01  0.672E-01
   0.580  0.673E-01  0.673E-01
   0.590  0.674E-01  0.674E-01
   0.600  0.674E-01  0.674E-01
   0.610  0.675E-01  0.675E-01
   0.620  0.676E-01  0.676E-01
   0.630  0.677E-01  0.677E-01
   0.640  0.677E-01  0.677E-01
   0.650  0.678E-01  0.678E-01
   0.660  0.679E-01  0.679E-01
   0.670  0.679E-01  0.679E-01
   0.680  0.680E-01  0.680E-01
   0.690  0.681E-01  0.681E-01
   0.700  0.682E-01  0.682E-01
   0.710  0.682E-01  0.682E-01
   0.720  0.683E-01  0.683E-01
   0.730  0.684E-01  0.684E-01
   0.740  0.685E-01  0.685E-01
   0.750  0.685E-01  0.685E-01
   0.760  0.686E-01  0.686E-01
   0.770  0.687E-01  0.687E-01
   0.780  0.687E-01  0.687E-01
   0.790  0.688E-01  0.688E-01
   0.800  0.689E-01  0.689E-01
   0.810  0.690E-01  0.690E-01
   0.820  0.690E-01  0.690E-01
   0.830  0.691E-01  0.691E-01
   0.840  0.692E-01  0.692E-01
   0.850  0.693E-01  0.693E-01
   0.860  0.693E-01  0.693E-01
   0.870  0.694E-01  0.694E-01
   0.880  0.695E-01  0.695E-01
   0.890  0.696E-01  0.696E-01
   0.900  0.696E-01  0.696E-01
   0.910  0.697E-01  0.697E-01
   0.920  0.698E-01  0.698E-01
   0.930  0.699E-01  0.699E-01
   0.940  0.699E-01  0.699E-01
   0.950  0.700E-01  0.700E-01
   0.960  0.701E-01  0.701E-01
   0.970  0.702E-01  0.702E-01
   0.980  0.702E-01  0.702E-01
   0.990  0.703E-01  0.703E-01
   1.000  0.704E-01  0.704E-01
   1.010  0.705E-01  0.705E-01
   1.020  0.706E-01  0.706E-01
   1.030  0.706E-01  0.706E-01
   1.040  0.707E-01  0.707E-01
   1.050  0.708E-01  0.708E-01
   1.060  0.709E-01  0.709E-01
   1.070  0.709E-01  0.709E-01
   1.080  0.710E-01  0.710E-01
   1.090  0.711E-01  0.711E-01
   1.100  0.712E-01  0.712E-01
   1.110  0.712E-01  0.712E-01
   1.120  0.713E-01  0.713E-01
   1.130  0.714E-01  0.714E-01
   1.140  0.715E-01  0.715E-01
   1.150  0.715E-01  0.715E-01
   1.160  0.716E-01  0.716E-01
   1.170  0.717E-01  0.717E-01
   1.180  0.718E-01  0.718E-01
   1.190  0.719E-01  0.719E-01
   1.200  0.719E-01  0.719E-01
   1.210  0.720E-01  0.720E-01
   1.220  0.721E-01  0.721E-01
   1.230  0.722E-01  0.722E-01
   1.240  0.722E-01  0.722E-01
   1.250  0.723E-01  0.723E-01
   1.260  0.724E-01  0.724E-01
   1.270  0.725E-01  0.725E-01
   1.280  0.726E-01  0.726E-01
   1.290  0.726E-01  0.726E-01
   1.300  0.727E-01  0.727E-01
   1.310  0.728E-01  0.728E-01
   1.320  0.729E-01  0.729E-01
   1.330  0.729E-01  0.729E-01
   1.340  0.730E-01  0.730E-01
   1.350  0.731E-01  0.731E-01
   1.360  0.732E-01  0.732E-01
   1.370  0.732E-01  0.732E-01
   1.380  0.733E-01  0.733E-01
   1.390  0.734E-01  0.734E-01
   1.400  0.735E-01  0.735E-01
   1.410  0.735E-01  0.735E-01
   1.420  0.736E-01  0.736E-01
   1.430  0.737E-01  0.737E-01
   1.440  0.738E-01  0.738E-01
   1.450  0.738E-01  0.738E-01
   1.460  0.739E-01  0.739E-01
   1.470  0.740E-01  0.740E-01
   1.480  0.741E-01  0.741E-01
   1.490  0.742E-01  0.742E-01
   1.500  0.742E-01  0.742E-01
   1.510  0.743E-01  0.743E-01
   1.520  0.744E-01  0.744E-01
   1.530  0.745E-01  0.745E-01
   1.540  0.745E-01  0.745E-01
   1.550  0.746E-01  0.746E-01
   1.560  0.747E-01  0.747E-01
   1.570  0.748E-01  0.748E-01
   1.580  0.748E-01  0.748E-01
   1.590  0.749E-01  0.749E-01
   1.600  0.750E-01  0.750E-01
   1.610  0.751E-01  0.751E-01
   1.620  0.751E-01  0.751E-01
   1.630  0.752E-01  0.752E-01
   1.640  0.753E-01  0.753E-01
   1.650  0.754E-01  0.754E-01
   1.660  0.754E-01  0.754E-01
   1.670  0.755E-01  0.755E-01
   1.680  0.756E-01  0.756E-01
   1.690  0.757E-01  0.757E-01
   1.700  0.757E-01  0.757E-01
   1.710  0.758E-01  0.758E-01
   1.720  0.759E-01  0.759E-01
   1.730  0.760E-01  0.760E-01
   1.740  0.760E-01  0.760E-01
   1.750  0.761E-01  0.761E-01
   1.760  0.762E-01  0.762E-01
   1.770  0.763E-01  0.763E-01
   1.780  0.763E-01  0.763E-01
   1.790  0.764E-01  0.764E-01
   1.800  0.765E-01  0.765E-01
   1.810  0.766E-01  0.766E-01
   1.820  0.766E-01  0.766E-01
   1.830  0.767E-01  0.767E-01
   1.840  0.768E-01  0.768E-01
   1.850  0.769E-01  0.769E-01
   1.860  0.769E-01  0.769E-01
   1.870  0.770E-01  0.770E-01
   1.880  0.771E-01  0.771E-01
   1.890  0.772E-01  0.772E-01
   1.900  0.772E-01  0.772E-01
   1.910  0.773E-01  0.773E-01
   1.920  0.774E-01  0.774E-01
   1.930  0.775E-01  0.775E-01
   1.940  0.775E-01  0.775E-01
   1.950  0.776E-01  0.776E-01
   1.960  0.777E-01  0.777E-01
   1.970  0.778E-01  0.778E-01
   1.980  0.778E-01  0.778E-01
   1.990  0.779E-01  0.779E-01
   2.000  0.780E-01  0.780E-01
   2.010  0.781E-01  0.781E-01
   2.020  0.781E-01  0.781E-01
   2.030  0.782E-01  0.782E-01
   2.040  0.783E-01  0.783E-01
   2.050  0.783E-01  0.783E-01
   2.060  0.784E-01  0.784E-01
   2.070  0.785E-01  0.785E-01
   2.080  0.786E-01  0.786E-01
   2.090  0.786E-01  0.786E-01
   2.100  0.787E-01  0.787E-01
   2.110  0.788E-01  0.788E-01
   2.120  0.788E-01  0.788E-01
   2.130  0.789E-01  0.789E-01
   2.140  0.790E-01  0.790E-01
   2.150  0.791E-01  0.791E-01
   2.160  0.791E-01  0.791E-01
   2.170  0.792E-01  0.792E-01
   2.180  0.793E-01  0.793E-01
   2.190  0.793E-01  0.793E-01
   2.200  0.794E-01  0.794E-01
   2.210  0.795E-01  0.795E-01
   2.220  0.795E-01  0.795E-01
   2.230  0.796E-01  0.796E-01
   2.240  0.796E-01  0.796E-01
   2.250  0.797E-01  0.797E-01
   2.260  0.798E-01  0.798E-01
   2.270  0.798E-01  0.798E-01
   2.280  0.799E-01  0.799E-01
   2.290  0.800E-01  0.800E-01
   2.300  0.800E-01  0.800E-01
   2.310  0.801E-01  0.801E-01
   2.320  0.802E-01  0.802E-01
   2.330  0.802E-01  0.802E-01
   2.340  0.803E-01  0.803E-01
   2.350  0.803E-01  0.803E-01
   2.360  0.804E-01  0.804E-01
   2.370  0.805E-01  0.805E-01
   2.380  0.805E-01  0.805E-01
   2.390  0.806E-01  0.806E-01
   2.400  0.806E-01  0.806E-01
   2.410  0.807E-01  0.807E-01
   2.420  0.807E-01  0.807E-01
   2.430  0.808E-01  0.808E-01
   2.440  0.809E-01  0.809E-01
   2.450  0.809E-01  0.809E-01
   2.460  0.810E-01  0.810E-01
   2.470  0.810E-01  0.810E-01
   2.480  0.811E-01  0.811E-01
   2.490  0.811E-01  0.811E-01
   2.500  0.812E-01  0.812E-01
   2.510  0.813E-01  0.813E-01
   2.520  0.813E-01  0.813E-01
   2.530  0.814E-01  0.814E-01
   2.540  0.814E-01  0.814E-01
   2.550  0.815E-01  0.815E-01
   2.560  0.815E-01  0.815E-01
   2.570  0.816E-01  0.816E-01
   2.580  0.816E-01  0.816E-01
   2.590  0.817E-01  0.817E-01
   2.600  0.817E-01  0.817E-01
   2.610  0.818E-01  0.818E-01
   2.620  0.818E-01  0.818E-01
   2.630  0.819E-01  0.819E-01
   2.640  0.820E-01  0.820E-01
   2.650  0.820E-01  0.820E-01
   2.660  0.821E-01  0.821E-01
   2.670  0.821E-01  0.821E-01
   2.680  0.822E-01  0.822E-01
   2.690  0.822E-01  0.822E-01
   2.700  0.823E-01  0.823E-01
   2.710  0.823E-01  0.823E-01
   2.720  0.824E-01  0.824E-01
   2.730  0.824E-01  0.824E-01
   2.740  0.824E-01  0.824E-01
   2.750  0.825E-01  0.825E-01
   2.760  0.825E-01  0.825E-01
   2.770  0.826E-01  0.826E-01
   2.780  0.826E-01  0.826E-01
   2.790  0.827E-01  0.827E-01
   2.800  0.827E-01  0.827E-01
   2.810  0.828E-01  0.828E-01
   2.820  0.828E-01  0.828E-01
   2.830  0.828E-01  0.828E-01
   2.840  0.829E-01  0.829E-01
   2.850  0.829E-01  0.829E-01
   2.860  0.830E-01  0.830E-01
   2.870  0.830E-01  0.830E-01
   2.880  0.830E-01  0.830E-01
   2.890  0.831E-01  0.831E-01
   2.900  0.831E-01  0.831E-01
   2.910  0.831E-01  0.831E-01
   2.920  0.832E-01  0.832E-01
   2.930  0.832E-01  0.832E-01
   2.940  0.832E-01  0.832E-01
   2.950  0.833E-01  0.833E-01
   2.960  0.833E-01  0.833E-01
   2.970  0.833E-01  0.833E-01
   2.980  0.833E-01  0.833E-01
   2.990  0.834E-01  0.834E-01
   3.000  0.834E-01  0.834E-01
   3.010  0.834E-01  0.834E-01
   3.020  0.834E-01  0.834E-01
   3.030  0.835E-01  0.835E-01
   3.040  0.835E-01  0.835E-01
   3.050  0.835E-01  0.835E-01
   3.060  0.835E-01  0.835E-01
   3.070  0.835E-01  0.835E-01
   3.080  0.835E-01  0.835E-01
   3.090  0.835E-01  0.835E-01
   3.100  0.835E-01  0.835E-01
   3.110  0.836E-01  0.836E-01
   3.120  0.836E-01  0.836E-01
   3.130  0.836E-01  0.836E-01
   3.140  0.836E-01  0.836E-01
   3.150  0.836E-01  0.836E-01
   3.160  0.836E-01  0.836E-01
   3.170  0.836E-01  0.836E-01
   3.180  0.836E-01  0.836E-01
   3.190  0.836E-01  0.836E-01
   3.200  0.836E-01  0.836E-01
   3.210  0.836E-01  0.836E-01
   3.220  0.836E-01  0.836E-01
   3.230  0.836E-01  0.836E-01
   3.240  0.835E-01  0.835E-01
   3.250  0.835E-01  0.835E-01
   3.260  0.835E-01  0.835E-01
   3.270  0.835E-01  0.835E-01
   3.280  0.835E-01  0.835E-01
   3.290  0.835E-01  0.835E-01
   3.300  0.835E-01  0.835E-01
   3.310  0.835E-01  0.835E-01
   3.320  0.834E-01  0.834E-01
   3.330  0.834E-01  0.834E-01
   3.340  0.834E-01  0.834E-01
   3.350  0.834E-01  0.834E-01
   3.360  0.834E-01  0.834E-01
   3.370  0.834E-01  0.834E-01
   3.380  0.833E-01  0.833E-01
   3.390  0.833E-01  0.833E-01
   3.400  0.833E-01  0.833E-01
   3.410  0.833E-01  0.833E-01
   3.420  0.833E-01  0.833E-01
   3.430  0.832E-01  0.832E-01
   3.440  0.832E-01  0.832E-01
   3.450  0.832E-01  0.832E-01
   3.460  0.832E-01  0.832E-01
   3.470  0.831E-01  0.831E-01
   3.480  0.831E-01  0.831E-01
   3.490  0.831E-01  0.831E-01
   3.500  0.831E-01  0.831E-01
   3.510  0.831E-01  0.831E-01
   3.520  0.830E-01  0.830E-01
   3.530  0.830E-01  0.830E-01
   3.540  0.830E-01  0.830E-01
   3.550  0.830E-01  0.830E-01
   3.560  0.830E-01  0.830E-01
   3.570  0.829E-01  0.829E-01
   3.580  0.829E-01  0.829E-01
   3.590  0.829E-01  0.829E-01
   3.600  0.829E-01  0.829E-01
   3.610  0.829E-01  0.829E-01
   3.620  0.829E-01  0.829E-01
   3.630  0.828E-01  0.828E-01
   3.640  0.828E-01  0.828E-01
   3.650  0.828E-01  0.828E-01
   3.660  0.828E-01  0.828E-01
   3.670  0.828E-01  0.828E-01
   3.680  0.828E-01  0.828E-01
   3.690  0.828E-01  0.828E-01
   3.700  0.828E-01  0.828E-01
   3.710  0.828E-01  0.828E-01
   3.720  0.828E-01  0.828E-01
   3.730  0.827E-01  0.827E-01
   3.740  0.827E-01  0.827E-01
   3.750  0.827E-01  0.827E-01
   3.760  0.827E-01  0.827E-01
   3.770  0.827E-01  0.827E-01
   3.780  0.828E-01  0.828E-01
   3.790  0.828E-01  0.828E-01
   3.800  0.828E-01  0.828E-01
   3.810  0.828E-01  0.828E-01
   3.820  0.828E-01  0.828E-01
   3.830  0.828E-01  0.828E-01
   3.840  0.828E-01  0.828E-01
   3.850  0.828E-01  0.828E-01
   3.860  0.828E-01  0.828E-01
   3.870  0.829E-01  0.829E-01
   3.880  0.829E-01  0.829E-01
   3.890  0.829E-01  0.829E-01
   3.900  0.829E-01  0.829E-01
   3.910  0.830E-01  0.830E-01
   3.920  0.830E-01  0.830E-01
   3.930  0.830E-01  0.830E-01
   3.940  0.831E-01  0.831E-01
   3.950  0.831E-01  0.831E-01
   3.960  0.831E-01  0.831E-01
   3.970  0.832E-01  0.832E-01
   3.980  0.832E-01  0.832E-01
   3.990  0.833E-01  0.833E-01
   4.000  0.833E-01  0.833E-01
   4.010  0.834E-01  0.834E-01
   4.020  0.834E-01  0.834E-01
   4.030  0.835E-01  0.835E-01
   4.040  0.835E-01  0.835E-01
   4.050  0.836E-01  0.836E-01
   4.060  0.837E-01  0.837E-01
   4.070  0.837E-01  0.837E-01
   4.080  0.838E-01  0.838E-01
   4.090  0.839E-01  0.839E-01
   4.100  0.840E-01  0.840E-01
   4.110  0.840E-01  0.840E-01
   4.120  0.841E-01  0.841E-01
   4.130  0.842E-01  0.842E-01
   4.140  0.843E-01  0.843E-01
   4.150  0.844E-01  0.844E-01
   4.160  0.845E-01  0.845E-01
   4.170  0.846E-01  0.846E-01
   4.180  0.847E-01  0.847E-01
   4.190  0.848E-01  0.848E-01
   4.200  0.849E-01  0.849E-01
   4.210  0.850E-01  0.850E-01
   4.220  0.851E-01  0.851E-01
   4.230  0.852E-01  0.852E-01
   4.240  0.854E-01  0.854E-01
   4.250  0.855E-01  0.855E-01
   4.260  0.856E-01  0.856E-01
   4.270  0.857E-01  0.857E-01
   4.280  0.859E-01  0.859E-01
   4.290  0.860E-01  0.860E-01
   4.300  0.861E-01  0.861E-01
   4.310  0.863E-01  0.863E-01
   4.320  0.864E-01  0.864E-01
   4.330  0.866E-01  0.866E-01
   4.340  0.867E-01  0.867E-01
   4.350  0.869E-01  0.869E-01
   4.360  0.870E-01  0.870E-01
   4.370  0.872E-01  0.872E-01
   4.380  0.873E-01  0.873E-01
   4.390  0.875E-01  0.875E-01
   4.400  0.876E-01  0.876E-01
   4.410  0.878E-01  0.878E-01
   4.420  0.879E-01  0.879E-01
   4.430  0.881E-01  0.881E-01
   4.440  0.883E-01  0.883E-01
   4.450  0.884E-01  0.884E-01
   4.460  0.886E-01  0.886E-01
   4.470  0.888E-01  0.888E-01
   4.480  0.890E-01  0.890E-01
   4.490  0.891E-01  0.891E-01
   4.500  0.893E-01  0.893E-01
   4.510  0.895E-01  0.895E-01
   4.520  0.896E-01  0.896E-01
   4.530  0.898E-01  0.898E-01
   4.540  0.900E-01  0.900E-01
   4.550  0.902E-01  0.902E-01
   4.560  0.903E-01  0.903E-01
   4.570  0.905E-01  0.905E-01
   4.580  0.907E-01  0.907E-01
   4.590  0.909E-01  0.909E-01
   4.600  0.910E-01  0.910E-01
   4.610  0.912E-01  0.912E-01
   4.620  0.914E-01  0.914E-01
   4.630  0.916E-01  0.916E-01
   4.640  0.917E-01  0.917E-01
   4.650  0.919E-01  0.919E-01
   4.660  0.921E-01  0.921E-01
   4.670  0.922E-01  0.922E-01
   4.680  0.924E-01  0.924E-01
   4.690  0.926E-01  0.926E-01
   4.700  0.927E-01  0.927E-01
   4.710  0.929E-01  0.929E-01
   4.720  0.931E-01  0.931E-01
   4.730  0.932E-01  0.932E-01
   4.740  0.934E-01  0.934E-01
   4.750  0.935E-01  0.935E-01
   4.760  0.937E-01  0.937E-01
   4.770  0.938E-01  0.938E-01
   4.780  0.940E-01  0.940E-01
   4.790  0.941E-01  0.941E-01
   4.800  0.942E-01  0.942E-01
   4.810  0.944E-01  0.944E-01
   4.820  0.945E-01  0.945E-01
   4.830  0.946E-01  0.946E-01
   4.840  0.948E-01  0.948E-01
   4.850  0.949E-01  0.949E-01
   4.860  0.950E-01  0.950E-01
   4.870  0.951E-01  0.951E-01
   4.880  0.953E-01  0.953E-01
   4.890  0.954E-01  0.954E-01
   4.900  0.955E-01  0.955E-01
   4.910  0.956E-01  0.956E-01
   4.920  0.957E-01  0.957E-01
   4.930  0.958E-01  0.958E-01
   4.940  0.959E-01  0.959E-01
   4.950  0.960E-01  0.960E-01
   4.960  0.961E-01  0.961E-01
   4.970  0.962E-01  0.962E-01
   4.980  0.962E-01  0.962E-01
   4.990  0.963E-01  0.963E-01
   5.000  0.964E-01  0.964E-01
   5.010  0.965E-01  0.965E-01
   5.020  0.965E-01  0.965E-01
   5.030  0.966E-01  0.966E-01
   5.040  0.966E-01  0.966E-01
   5.050  0.967E-01  0.967E-01
   5.060  0.968E-01  0.968E-01
   5.070  0.968E-01  0.968E-01
   5.080  0.969E-01  0.969E-01
   5.090  0.969E-01  0.969E-01
   5.100  0.969E-01  0.969E-01
   5.110  0.970E-01  0.970E-01
   5.120  0.970E-01  0.970E-01
   5.130  0.970E-01  0.970E-01
   5.140  0.971E-01  0.971E-01
   5.150  0.971E-01  0.971E-01
   5.160  0.971E-01  0.971E-01
   5.170  0.971E-01  0.971E-01
   5.180  0.971E-01  0.971E-01
   5.190  0.971E-01  0.971E-01
   5.200  0.971E-01  0.971E-01
   5.210  0.972E-01  0.972E-01
   5.220  0.972E-01  0.972E-01
   5.230  0.972E-01  0.972E-01
   5.240  0.972E-01  0.972E-01
   5.250  0.971E-01  0.971E-01
   5.260  0.971E-01  0.971E-01
   5.270  0.971E-01  0.971E-01
   5.280  0.971E-01  0.971E-01
   5.290  0.971E-01  0.971E-01
   5.300  0.971E-01  0.971E-01
   5.310  0.971E-01  0.971E-01
   5.320  0.970E-01  0.970E-01
   5.330  0.970E-01  0.970E-01
   5.340  0.970E-01  0.970E-01
   5.350  0.970E-01  0.970E-01
   5.360  0.969E-01  0.969E-01
   5.370  0.969E-01  0.969E-01
   5.380  0.969E-01  0.969E-01
   5.390  0.968E-01  0.968E-01
   5.400  0.968E-01  0.968E-01
   5.410  0.968E-01  0.968E-01
   5.420  0.967E-01  0.967E-01
   5.430  0.967E-01  0.967E-01
   5.440  0.966E-01  0.966E-01
   5.450  0.966E-01  0.966E-01
   5.460  0.965E-01  0.965E-01
   5.470  0.965E-01  0.965E-01
   5.480  0.964E-01  0.964E-01
   5.490  0.964E-01  0.964E-01
   5.500  0.963E-01  0.963E-01
   5.510  0.963E-01  0.963E-01
   5.520  0.962E-01  0.962E-01
   5.530  0.962E-01  0.962E-01
   5.540  0.961E-01  0.961E-01
   5.550  0.961E-01  0.961E-01
   5.560  0.960E-01  0.960E-01
   5.570  0.959E-01  0.959E-01
   5.580  0.959E-01  0.959E-01
   5.590  0.958E-01  0.958E-01
   5.600  0.958E-01  0.958E-01
   5.610  0.957E-01  0.957E-01
   5.620  0.956E-01  0.956E-01
   5.630  0.956E-01  0.956E-01
   5.640  0.955E-01  0.955E-01
   5.650  0.955E-01  0.955E-01
   5.660  0.954E-01  0.954E-01
   5.670  0.953E-01  0.953E-01
   5.680  0.953E-01  0.953E-01
   5.690  0.952E-01  0.952E-01
   5.700  0.951E-01  0.951E-01
   5.710  0.950E-01  0.950E-01
   5.720  0.950E-01  0.950E-01
   5.730  0.949E-01  0.949E-01
   5.740  0.948E-01  0.948E-01
   5.750  0.948E-01  0.948E-01
   5.760  0.947E-01  0.947E-01
   5.770  0.946E-01  0.946E-01
   5.780  0.946E-01  0.946E-01
   5.790  0.945E-01  0.945E-01
   5.800  0.944E-01  0.944E-01
   5.810  0.943E-01  0.943E-01
   5.820  0.943E-01  0.943E-01
   5.830  0.942E-01  0.942E-01
   5.840  0.941E-01  0.941E-01
   5.850  0.940E-01  0.940E-01
   5.860  0.939E-01  0.939E-01
   5.870  0.939E-01  0.939E-01
   5.880  0.938E-01  0.938E-01
   5.890  0.937E-01  0.937E-01
   5.900  0.936E-01  0.936E-01
   5.910  0.936E-01  0.936E-01
   5.920  0.935E-01  0.935E-01
   5.930  0.934E-01  0.934E-01
   5.940  0.933E-01  0.933E-01
   5.950  0.932E-01  0.932E-01
   5.960  0.932E-01  0.932E-01
   5.970  0.931E-01  0.931E-01
   5.980  0.930E-01  0.930E-01
   5.990  0.929E-01  0.929E-01
   6.000  0.928E-01  0.928E-01
   6.010  0.927E-01  0.927E-01
   6.020  0.927E-01  0.927E-01
   6.030  0.926E-01  0.926E-01
   6.040  0.925E-01  0.925E-01
   6.050  0.924E-01  0.924E-01
   6.060  0.923E-01  0.923E-01
   6.070  0.923E-01  0.923E-01
   6.080  0.922E-01  0.922E-01
   6.090  0.921E-01  0.921E-01
   6.100  0.920E-01  0.920E-01
   6.110  0.919E-01  0.919E-01
   6.120  0.919E-01  0.919E-01
   6.130  0.918E-01  0.918E-01
   6.140  0.917E-01  0.917E-01
   6.150  0.916E-01  0.916E-01
   6.160  0.915E-01  0.915E-01
   6.170  0.915E-01  0.915E-01
   6.180  0.914E-01  0.914E-01
   6.190  0.913E-01  0.913E-01
   6.200  0.912E-01  0.912E-01
   6.210  0.912E-01  0.912E-01
   6.220  0.911E-01  0.911E-01
   6.230  0.910E-01  0.910E-01
   6.240  0.910E-01  0.910E-01
   6.250  0.909E-01  0.909E-01
   6.260  0.908E-01  0.908E-01
   6.270  0.908E-01  0.908E-01
   6.280  0.907E-01  0.907E-01
   6.290  0.907E-01  0.907E-01
   6.300  0.906E-01  0.906E-01
   6.310  0.905E-01  0.905E-01
   6.320  0.905E-01  0.905E-01
   6.330  0.904E-01  0.904E-01
   6.340  0.904E-01  0.904E-01
   6.350  0.903E-01  0.903E-01
   6.360  0.903E-01  0.903E-01
   6.370  0.902E-01  0.902E-01
   6.380  0.902E-01  0.902E-01
   6.390  0.902E-01  0.902E-01
   6.400  0.901E-01  0.901E-01
   6.410  0.901E-01  0.901E-01
   6.420  0.901E-01  0.901E-01
   6.430  0.901E-01  0.901E-01
   6.440  0.900E-01  0.900E-01
   6.450  0.900E-01  0.900E-01
   6.460  0.900E-01  0.900E-01
   6.470  0.900E-01  0.900E-01
   6.480  0.900E-01  0.900E-01
   6.490  0.900E-01  0.900E-01
   6.500  0.900E-01  0.900E-01
   6.510  0.900E-01  0.900E-01
   6.520  0.900E-01  0.900E-01
   6.530  0.900E-01  0.900E-01
   6.540  0.900E-01  0.900E-01
   6.550  0.900E-01  0.900E-01
   6.560  0.901E-01  0.901E-01
   6.570  0.901E-01  0.901E-01
   6.580  0.901E-01  0.901E-01
   6.590  0.901E-01  0.901E-01
   6.600  0.902E-01  0.902E-01
   6.610  0.902E-01  0.902E-01
   6.620  0.903E-01  0.903E-01
   6.630  0.903E-01  0.903E-01
   6.640  0.904E-01  0.904E-01
   6.650  0.905E-01  0.905E-01
   6.660  0.905E-01  0.905E-01
   6.670  0.906E-01  0.906E-01
   6.680  0.907E-01  0.907E-01
   6.690  0.908E-01  0.908E-01
   6.700  0.908E-01  0.908E-01
   6.710  0.909E-01  0.909E-01
   6.720  0.910E-01  0.910E-01
   6.730  0.911E-01  0.911E-01
   6.740  0.912E-01  0.912E-01
   6.750  0.914E-01  0.914E-01
   6.760  0.915E-01  0.915E-01
   6.770  0.916E-01  0.916E-01
   6.780  0.917E-01  0.917E-01
   6.790  0.918E-01  0.918E-01
   6.800  0.920E-01  0.920E-01
   6.810  0.921E-01  0.921E-01
   6.820  0.923E-01  0.923E-01
   6.830  0.924E-01  0.924E-01
   6.840  0.926E-01  0.926E-01
   6.850  0.927E-01  0.927E-01
   6.860  0.929E-01  0.929E-01
   6.870  0.930E-01  0.930E-01
   6.880  0.932E-01  0.932E-01
   6.890  0.934E-01  0.934E-01
   6.900  0.935E-01  0.935E-01
   6.910  0.937E-01  0.937E-01
   6.920  0.939E-01  0.939E-01
   6.930  0.941E-01  0.941E-01
   6.940  0.943E-01  0.943E-01
   6.950  0.945E-01  0.945E-01
   6.960  0.947E-01  0.947E-01
   6.970  0.949E-01  0.949E-01
   6.980  0.950E-01  0.950E-01
   6.990  0.953E-01  0.953E-01
   7.000  0.955E-01  0.955E-01
   7.010  0.957E-01  0.957E-01
   7.020  0.959E-01  0.959E-01
   7.030  0.961E-01  0.961E-01
   7.040  0.963E-01  0.963E-01
   7.050  0.965E-01  0.965E-01
   7.060  0.967E-01  0.967E-01
   7.070  0.969E-01  0.969E-01
   7.080  0.971E-01  0.971E-01
   7.090  0.973E-01  0.973E-01
   7.100  0.975E-01  0.975E-01
   7.110  0.978E-01  0.978E-01
   7.120  0.980E-01  0.980E-01
   7.130  0.982E-01  0.982E-01
   7.140  0.984E-01  0.984E-01
   7.150  0.986E-01  0.986E-01
   7.160  0.988E-01  0.988E-01
   7.170  0.990E-01  0.990E-01
   7.180  0.992E-01  0.992E-01
   7.190  0.994E-01  0.994E-01
   7.200  0.996E-01  0.996E-01
   7.210  0.998E-01  0.998E-01
   7.220  0.100E+00  0.100E+00
   7.230  0.100E+00  0.100E+00
   7.240  0.100E+00  0.100E+00
   7.250  0.101E+00  0.101E+00
   7.260  0.101E+00  0.101E+00
   7.270  0.101E+00  0.101E+00
   7.280  0.101E+00  0.101E+00
   7.290  0.101E+00  0.101E+00
   7.300  0.101E+00  0.101E+00
   7.310  0.102E+00  0.102E+00
   7.320  0.102E+00  0.102E+00
   7.330  0.102E+00  0.102E+00
   7.340  0.102E+00  0.102E+00
   7.350  0.102E+00  0.102E+00
   7.360  0.102E+00  0.102E+00
   7.370  0.102E+00  0.102E+00
   7.380  0.103E+00  0.103E+00
   7.390  0.103E+00  0.103E+00
   7.400  0.103E+00  0.103E+00
   7.410  0.103E+00  0.103E+00
   7.420  0.103E+00  0.103E+00
   7.430  0.103E+00  0.103E+00
   7.440  0.103E+00  0.103E+00
   7.450  0.103E+00  0.103E+00
   7.460  0.103E+00  0.103E+00
   7.470  0.103E+00  0.103E+00
   7.480  0.103E+00  0.103E+00
   7.490  0.103E+00  0.103E+00
   7.500  0.103E+00  0.103E+00
   7.510  0.103E+00  0.103E+00
   7.520  0.104E+00  0.104E+00
   7.530  0.104E+00  0.104E+00
   7.540  0.104E+00  0.104E+00
   7.550  0.104E+00  0.104E+00
   7.560  0.104E+00  0.104E+00
   7.570  0.104E+00  0.104E+00
   7.580  0.104E+00  0.104E+00
   7.590  0.104E+00  0.104E+00
   7.600  0.104E+00  0.104E+00
   7.610  0.104E+00  0.104E+00
   7.620  0.103E+00  0.103E+00
   7.630  0.103E+00  0.103E+00
   7.640  0.103E+00  0.103E+00
   7.650  0.103E+00  0.103E+00
   7.660  0.103E+00  0.103E+00
   7.670  0.103E+00  0.103E+00
   7.680  0.103E+00  0.103E+00
   7.690  0.103E+00  0.103E+00
   7.700  0.103E+00  0.103E+00
   7.710  0.103E+00  0.103E+00
   7.720  0.103E+00  0.103E+00
   7.730  0.103E+00  0.103E+00
   7.740  0.103E+00  0.103E+00
   7.750  0.103E+00  0.103E+00
   7.760  0.103E+00  0.103E+00
   7.770  0.103E+00  0.103E+00
   7.780  0.103E+00  0.103E+00
   7.790  0.103E+00  0.103E+00
   7.800  0.103E+00  0.103E+00
   7.810  0.103E+00  0.103E+00
   7.820  0.102E+00  0.102E+00
   7.830  0.102E+00  0.102E+00
   7.840  0.102E+00  0.102E+00
   7.850  0.102E+00  0.102E+00
   7.860  0.102E+00  0.102E+00
   7.870  0.102E+00  0.102E+00
   7.880  0.102E+00  0.102E+00
   7.890  0.102E+00  0.102E+00
   7.900  0.102E+00  0.102E+00
   7.910  0.102E+00  0.102E+00
   7.920  0.102E+00  0.102E+00
   7.930  0.102E+00  0.102E+00
   7.940  0.102E+00  0.102E+00
   7.950  0.102E+00  0.102E+00
   7.960  0.102E+00  0.102E+00
   7.970  0.102E+00  0.102E+00
   7.980  0.102E+00  0.102E+00
   7.990  0.102E+00  0.102E+00
   8.000  0.102E+00  0.102E+00
   8.010  0.102E+00  0.102E+00
   8.020  0.102E+00  0.102E+00
   8.030  0.102E+00  0.102E+00
   8.040  0.102E+00  0.102E+00
   8.050  0.103E+00  0.103E+00
   8.060  0.103E+00  0.103E+00
   8.070  0.103E+00  0.103E+00
   8.080  0.103E+00  0.103E+00
   8.090  0.103E+00  0.103E+00
   8.100  0.103E+00  0.103E+00
   8.110  0.103E+00  0.103E+00
   8.120  0.103E+00  0.103E+00
   8.130  0.103E+00  0.103E+00
   8.140  0.104E+00  0.104E+00
   8.150  0.104E+00  0.104E+00
   8.160  0.104E+00  0.104E+00
   8.170  0.104E+00  0.104E+00
   8.180  0.104E+00  0.104E+00
   8.190  0.104E+00  0.104E+00
   8.200  0.105E+00  0.105E+00
   8.210  0.105E+00  0.105E+00
   8.220  0.105E+00  0.105E+00
   8.230  0.105E+00  0.105E+00
   8.240  0.106E+00  0.106E+00
   8.250  0.106E+00  0.106E+00
   8.260  0.106E+00  0.106E+00
   8.270  0.106E+00  0.106E+00
   8.280  0.107E+00  0.107E+00
   8.290  0.107E+00  0.107E+00
   8.300  0.107E+00  0.107E+00
   8.310  0.107E+00  0.107E+00
   8.320  0.108E+00  0.108E+00
   8.330  0.108E+00  0.108E+00
   8.340  0.108E+00  0.108E+00
   8.350  0.108E+00  0.108E+00
   8.360  0.109E+00  0.109E+00
   8.370  0.109E+00  0.109E+00
   8.380  0.109E+00  0.109E+00
   8.390  0.110E+00  0.110E+00
   8.400  0.110E+00  0.110E+00
   8.410  0.110E+00  0.110E+00
   8.420  0.110E+00  0.110E+00
   8.430  0.111E+00  0.111E+00
   8.440  0.111E+00  0.111E+00
   8.450  0.111E+00  0.111E+00
   8.460  0.112E+00  0.112E+00
   8.470  0.112E+00  0.112E+00
   8.480  0.112E+00  0.112E+00
   8.490  0.113E+00  0.113E+00
   8.500  0.113E+00  0.113E+00
   8.510  0.113E+00  0.113E+00
   8.520  0.113E+00  0.113E+00
   8.530  0.114E+00  0.114E+00
   8.540  0.114E+00  0.114E+00
   8.550  0.114E+00  0.114E+00
   8.560  0.115E+00  0.115E+00
   8.570  0.115E+00  0.115E+00
   8.580  0.115E+00  0.115E+00
   8.590  0.115E+00  0.115E+00
   8.600  0.116E+00  0.116E+00
   8.610  0.116E+00  0.116E+00
   8.620  0.116E+00  0.116E+00
   8.630  0.116E+00  0.116E+00
   8.640  0.116E+00  0.116E+00
   8.650  0.117E+00  0.117E+00
   8.660  0.117E+00  0.117E+00
   8.670  0.117E+00  0.117E+00
   8.680  0.117E+00  0.117E+00
   8.690  0.117E+00  0.117E+00
   8.700  0.118E+00  0.118E+00
   8.710  0.118E+00  0.118E+00
   8.720  0.118E+00  0.118E+00
   8.730  0.118E+00  0.118E+00
   8.740  0.118E+00  0.118E+00
   8.750  0.119E+00  0.119E+00
   8.760  0.119E+00  0.119E+00
   8.770  0.119E+00  0.119E+00
   8.780  0.119E+00  0.119E+00
   8.790  0.119E+00  0.119E+00
   8.800  0.119E+00  0.119E+00
   8.810  0.119E+00  0.119E+00
   8.820  0.119E+00  0.119E+00
   8.830  0.120E+00  0.120E+00
   8.840  0.120E+00  0.120E+00
   8.850  0.120E+00  0.120E+00
   8.860  0.120E+00  0.120E+00
   8.870  0.120E+00  0.120E+00
   8.880  0.120E+00  0.120E+00
   8.890  0.120E+00  0.120E+00
   8.900  0.120E+00  0.120E+00
   8.910  0.120E+00  0.120E+00
   8.920  0.120E+00  0.120E+00
   8.930  0.120E+00  0.120E+00
   8.940  0.120E+00  0.120E+00
   8.950  0.120E+00  0.120E+00
   8.960  0.120E+00  0.120E+00
   8.970  0.120E+00  0.120E+00
   8.980  0.120E+00  0.120E+00
   8.990  0.120E+00  0.120E+00
   9.000  0.121E+00  0.121E+00
   9.010  0.121E+00  0.121E+00
   9.020  0.121E+00  0.121E+00
   9.030  0.121E+00  0.121E+00
   9.040  0.121E+00  0.121E+00
   9.050  0.121E+00  0.121E+00
   9.060  0.121E+00  0.121E+00
   9.070  0.121E+00  0.121E+00
   9.080  0.121E+00  0.121E+00
   9.090  0.121E+00  0.121E+00
   9.100  0.121E+00  0.121E+00
   9.110  0.121E+00  0.121E+00
   9.120  0.121E+00  0.121E+00
   9.130  0.121E+00  0.121E+00
   9.140  0.121E+00  0.121E+00
   9.150  0.121E+00  0.121E+00
   9.160  0.121E+00  0.121E+00
   9.170  0.121E+00  0.121E+00
   9.180  0.121E+00  0.121E+00
   9.190  0.120E+00  0.120E+00
   9.200  0.120E+00  0.120E+00
   9.210  0.120E+00  0.120E+00
   9.220  0.120E+00  0.120E+00
   9.230  0.120E+00  0.120E+00
   9.240  0.120E+00  0.120E+00
   9.250  0.120E+00  0.120E+00
   9.260  0.120E+00  0.120E+00
   9.270  0.120E+00  0.120E+00
   9.280  0.120E+00  0.120E+00
   9.290  0.120E+00  0.120E+00
   9.300  0.120E+00  0.120E+00
   9.310  0.120E+00  0.120E+00
   9.320  0.120E+00  0.120E+00
   9.330  0.120E+00  0.120E+00
   9.340  0.120E+00  0.120E+00
   9.350  0.120E+00  0.120E+00
   9.360  0.120E+00  0.120E+00
   9.370  0.120E+00  0.120E+00
   9.380  0.120E+00  0.120E+00
   9.390  0.120E+00  0.120E+00
   9.400  0.120E+00  0.120E+00
   9.410  0.120E+00  0.120E+00
   9.420  0.120E+00  0.120E+00
   9.430  0.119E+00  0.119E+00
   9.440  0.119E+00  0.119E+00
   9.450  0.119E+00  0.119E+00
   9.460  0.119E+00  0.119E+00
   9.470  0.119E+00  0.119E+00
   9.480  0.119E+00  0.119E+00
   9.490  0.119E+00  0.119E+00
   9.500  0.119E+00  0.119E+00
   9.510  0.119E+00  0.119E+00
   9.520  0.119E+00  0.119E+00
   9.530  0.119E+00  0.119E+00
   9.540  0.119E+00  0.119E+00
   9.550  0.119E+00  0.119E+00
   9.560  0.118E+00  0.118E+00
   9.570  0.118E+00  0.118E+00
   9.580  0.118E+00  0.118E+00
   9.590  0.118E+00  0.118E+00
   9.600  0.118E+00  0.118E+00
   9.610  0.118E+00  0.118E+00
   9.620  0.118E+00  0.118E+00
   9.630  0.118E+00  0.118E+00
   9.640  0.118E+00  0.118E+00
   9.650  0.117E+00  0.117E+00
   9.660  0.117E+00  0.117E+00
   9.670  0.117E+00  0.117E+00
   9.680  0.117E+00  0.117E+00
   9.690  0.117E+00  0.117E+00
   9.700  0.117E+00  0.117E+00
   9.710  0.117E+00  0.117E+00
   9.720  0.117E+00  0.117E+00
   9.730  0.117E+00  0.117E+00
   9.740  0.116E+00  0.116E+00
   9.750  0.116E+00  0.116E+00
   9.760  0.116E+00  0.116E+00
   9.770  0.116E+00  0.116E+00
   9.780  0.116E+00  0.116E+00
   9.790  0.116E+00  0.116E+00
   9.800  0.116E+00  0.116E+00
   9.810  0.116E+00  0.116E+00
   9.820  0.116E+00  0.116E+00
   9.830  0.116E+00  0.116E+00
   9.840  0.115E+00  0.115E+00
   9.850  0.115E+00  0.115E+00
   9.860  0.115E+00  0.115E+00
   9.870  0.115E+00  0.115E+00
   9.880  0.115E+00  0.115E+00
   9.890  0.115E+00  0.115E+00
   9.900  0.115E+00  0.115E+00
   9.910  0.115E+00  0.115E+00
   9.920  0.115E+00  0.115E+00
   9.930  0.115E+00  0.115E+00
   9.940  0.115E+00  0.115E+00
   9.950  0.115E+00  0.115E+00
   9.960  0.115E+00  0.115E+00
   9.970  0.115E+00  0.115E+00
   9.980  0.115E+00  0.115E+00
   9.990  0.115E+00  0.115E+00
  10.000  0.115E+00  0.115E+00
  10.010  0.114E+00  0.114E+00
  10.020  0.114E+00  0.114E+00
  10.030  0.114E+00  0.114E+00
  10.040  0.114E+00  0.114E+00
  10.050  0.114E+00  0.114E+00
  10.060  0.115E+00  0.115E+00
  10.070  0.115E+00  0.115E+00
  10.080  0.115E+00  0.115E+00
  10.090  0.115E+00  0.115E+00
  10.100  0.115E+00  0.115E+00
  10.110  0.115E+00  0.115E+00
  10.120  0.115E+00  0.115E+00
  10.130  0.115E+00  0.115E+00
  10.140  0.115E+00  0.115E+00
  10.150  0.115E+00  0.115E+00
  10.160  0.115E+00  0.115E+00
  10.170  0.115E+00  0.115E+00
  10.180  0.115E+00  0.115E+00
  10.190  0.115E+00  0.115E+00
  10.200  0.115E+00  0.115E+00
  10.210  0.116E+00  0.116E+00
  10.220  0.116E+00  0.116E+00
  10.230  0.116E+00  0.116E+00
  10.240  0.116E+00  0.116E+00
  10.250  0.116E+00  0.116E+00
  10.260  0.116E+00  0.116E+00
  10.270  0.116E+00  0.116E+00
  10.280  0.116E+00  0.116E+00
  10.290  0.117E+00  0.117E+00
  10.300  0.117E+00  0.117E+00
  10.310  0.117E+00  0.117E+00
  10.320  0.117E+00  0.117E+00
  10.330  0.117E+00  0.117E+00
  10.340  0.117E+00  0.117E+00
  10.350  0.118E+00  0.118E+00
  10.360  0.118E+00  0.118E+00
  10.370  0.118E+00  0.118E+00
  10.380  0.118E+00  0.118E+00
  10.390  0.118E+00  0.118E+00
  10.400  0.118E+00  0.118E+00
  10.410  0.119E+00  0.119E+00
  10.420  0.119E+00  0.119E+00
  10.430  0.119E+00  0.119E+00
  10.440  0.119E+00  0.119E+00
  10.450  0.119E+00  0.119E+00
  10.460  0.119E+00  0.119E+00
  10.470  0.120E+00  0.120E+00
  10.480  0.120E+00  0.120E+00
  10.490  0.120E+00  0.120E+00
  10.500  0.120E+00  0.120E+00
  10.510  0.120E+00  0.120E+00
  10.520  0.121E+00  0.121E+00
  10.530  0.121E+00  0.121E+00
  10.540  0.121E+00  0.121E+00
  10.550  0.121E+00  0.121E+00
  10.560  0.121E+00  0.121E+00
  10.570  0.121E+00  0.121E+00
  10.580  0.122E+00  0.122E+00
  10.590  0.122E+00  0.122E+00
  10.600  0.122E+00  0.122E+00
  10.610  0.122E+00  0.122E+00
  10.620  0.122E+00  0.122E+00
  10.630  0.122E+00  0.122E+00
  10.640  0.123E+00  0.123E+00
  10.650  0.123E+00  0.123E+00
  10.660  0.123E+00  0.123E+00
  10.670  0.123E+00  0.123E+00
  10.680  0.123E+00  0.123E+00
  10.690  0.123E+00  0.123E+00
  10.700  0.123E+00  0.123E+00
  10.710  0.124E+00  0.124E+00
  10.720  0.124E+00  0.124E+00
  10.730  0.124E+00  0.124E+00
  10.740  0.124E+00  0.124E+00
  10.750  0.124E+00  0.124E+00
  10.760  0.124E+00  0.124E+00
  10.770  0.124E+00  0.124E+00
  10.780  0.124E+00  0.124E+00
  10.790  0.124E+00  0.124E+00
  10.800  0.125E+00  0.125E+00
  10.810  0.125E+00  0.125E+00
  10.820  0.125E+00  0.125E+00
  10.830  0.125E+00  0.125E+00
  10.840  0.125E+00  0.125E+00
  10.850  0.125E+00  0.125E+00
  10.860  0.125E+00  0.125E+00
  10.870  0.125E+00  0.125E+00
  10.880  0.125E+00  0.125E+00
  10.890  0.125E+00  0.125E+00
  10.900  0.125E+00  0.125E+00
  10.910  0.125E+00  0.125E+00
  10.920  0.125E+00  0.125E+00
  10.930  0.125E+00  0.125E+00
  10.940  0.126E+00  0.126E+00
  10.950  0.126E+00  0.126E+00
  10.960  0.126E+00  0.126E+00
  10.970  0.126E+00  0.126E+00
  10.980  0.126E+00  0.126E+00
  10.990  0.126E+00  0.126E+00
  11.000  0.126E+00  0.126E+00
  11.010  0.126E+00  0.126E+00
  11.020  0.126E+00  0.126E+00
  11.030  0.126E+00  0.126E+00
  11.040  0.126E+00  0.126E+00
  11.050  0.126E+00  0.126E+00
  11.060  0.126E+00  0.126E+00
  11.070  0.126E+00  0.126E+00
  11.080  0.126E+00  0.126E+00
  11.090  0.126E+00  0.126E+00
  11.100  0.126E+00  0.126E+00
  11.110  0.126E+00  0.126E+00
  11.120  0.126E+00  0.126E+00
  11.130  0.126E+00  0.126E+00
  11.140  0.126E+00  0.126E+00
  11.150  0.126E+00  0.126E+00
  11.160  0.126E+00  0.126E+00
  11.170  0.126E+00  0.126E+00
  11.180  0.126E+00  0.126E+00
  11.190  0.126E+00  0.126E+00
  11.200  0.125E+00  0.125E+00
  11.210  0.125E+00  0.125E+00
  11.220  0.125E+00  0.125E+00
  11.230  0.125E+00  0.125E+00
  11.240  0.125E+00  0.125E+00
  11.250  0.125E+00  0.125E+00
  11.260  0.125E+00  0.125E+00
  11.270  0.125E+00  0.125E+00
  11.280  0.125E+00  0.125E+00
  11.290  0.125E+00  0.125E+00
  11.300  0.125E+00  0.125E+00
  11.310  0.125E+00  0.125E+00
  11.320  0.125E+00  0.125E+00
  11.330  0.125E+00  0.125E+00
  11.340  0.125E+00  0.125E+00
  11.350  0.125E+00  0.125E+00
  11.360  0.125E+00  0.125E+00
  11.370  0.125E+00  0.125E+00
  11.380  0.125E+00  0.125E+00
  11.390  0.124E+00  0.124E+00
  11.400  0.124E+00  0.124E+00
  11.410  0.124E+00  0.124E+00
  11.420  0.124E+00  0.124E+00
  11.430  0.124E+00  0.124E+00
  11.440  0.124E+00  0.124E+00
  11.450  0.124E+00  0.124E+00
  11.460  0.124E+00  0.124E+00
  11.470  0.124E+00  0.124E+00
  11.480  0.124E+00  0.124E+00
  11.490  0.124E+00  0.124E+00
  11.500  0.124E+00  0.124E+00
  11.510  0.124E+00  0.124E+00
  11.520  0.124E+00  0.124E+00
  11.530  0.124E+00  0.124E+00
  11.540  0.123E+00  0.123E+00
  11.550  0.123E+00  0.123E+00
  11.560  0.123E+00  0.123E+00
  11.570  0.123E+00  0.123E+00
  11.580  0.123E+00  0.123E+00
  11.590  0.123E+00  0.123E+00
  11.600  0.123E+00  0.123E+00
  11.610  0.123E+00  0.123E+00
  11.620  0.123E+00  0.123E+00
  11.630  0.123E+00  0.123E+00
  11.640  0.123E+00  0.123E+00
  11.650  0.123E+00  0.123E+00
  11.660  0.123E+00  0.123E+00
  11.670  0.123E+00  0.123E+00
  11.680  0.123E+00  0.123E+00
  11.690  0.123E+00  0.123E+00
  11.700  0.123E+00  0.123E+00
  11.710  0.123E+00  0.123E+00
  11.720  0.123E+00  0.123E+00
  11.730  0.123E+00  0.123E+00
  11.740  0.122E+00  0.122E+00
  11.750  0.122E+00  0.122E+00
  11.760  0.122E+00  0.122E+00
  11.770  0.122E+00  0.122E+00
  11.780  0.122E+00  0.122E+00
  11.790  0.122E+00  0.122E+00
  11.800  0.122E+00  0.122E+00
  11.810  0.122E+00  0.122E+00
  11.820  0.122E+00  0.122E+00
  11.830  0.122E+00  0.122E+00
  11.840  0.122E+00  0.122E+00
  11.850  0.122E+00  0.122E+00
  11.860  0.122E+00  0.122E+00
  11.870  0.122E+00  0.122E+00
  11.880  0.122E+00  0.122E+00
  11.890  0.122E+00  0.122E+00
  11.900  0.122E+00  0.122E+00
  11.910  0.122E+00  0.122E+00
  11.920  0.122E+00  0.122E+00
  11.930  0.122E+00  0.122E+00
  11.940  0.122E+00  0.122E+00
  11.950  0.122E+00  0.122E+00
  11.960  0.122E+00  0.122E+00
  11.970  0.122E+00  0.122E+00
  11.980  0.122E+00  0.122E+00
  11.990  0.122E+00  0.122E+00
  12.000  0.122E+00  0.122E+00
  12.010  0.122E+00  0.122E+00
  12.020  0.122E+00  0.122E+00
  12.030  0.122E+00  0.122E+00
  12.040  0.122E+00  0.122E+00
  12.050  0.122E+00  0.122E+00
  12.060  0.122E+00  0.122E+00
  12.070  0.122E+00  0.122E+00
  12.080  0.122E+00  0.122E+00
  12.090  0.122E+00  0.122E+00
  12.100  0.122E+00  0.122E+00
  12.110  0.122E+00  0.122E+00
  12.120  0.122E+00  0.122E+00
  12.130  0.122E+00  0.122E+00
  12.140  0.122E+00  0.122E+00
  12.150  0.122E+00  0.122E+00
  12.160  0.122E+00  0.122E+00
  12.170  0.122E+00  0.122E+00
  12.180  0.122E+00  0.122E+00
  12.190  0.122E+00  0.122E+00
  12.200  0.122E+00  0.122E+00
  12.210  0.122E+00  0.122E+00
  12.220  0.122E+00  0.122E+00
  12.230  0.122E+00  0.122E+00
  12.240  0.122E+00  0.122E+00
  12.250  0.122E+00  0.122E+00
  12.260  0.122E+00  0.122E+00
  12.270  0.122E+00  0.122E+00
  12.280  0.122E+00  0.122E+00
  12.290  0.122E+00  0.122E+00
  12.300  0.122E+00  0.122E+00
  12.310  0.122E+00  0.122E+00
  12.320  0.122E+00  0.122E+00
  12.330  0.122E+00  0.122E+00
  12.340  0.122E+00  0.122E+00
  12.350  0.122E+00  0.122E+00
  12.360  0.122E+00  0.122E+00
  12.370  0.122E+00  0.122E+00
  12.380  0.122E+00  0.122E+00
  12.390  0.121E+00  0.121E+00
  12.400  0.121E+00  0.121E+00
  12.410  0.121E+00  0.121E+00
  12.420  0.121E+00  0.121E+00
  12.430  0.121E+00  0.121E+00
  12.440  0.121E+00  0.121E+00
  12.450  0.121E+00  0.121E+00
  12.460  0.121E+00  0.121E+00
  12.470  0.121E+00  0.121E+00
  12.480  0.121E+00  0.121E+00
  12.490  0.120E+00  0.120E+00
  12.500  0.120E+00  0.120E+00
  12.510  0.120E+00  0.120E+00
  12.520  0.120E+00  0.120E+00
  12.530  0.120E+00  0.120E+00
  12.540  0.120E+00  0.120E+00
  12.550  0.120E+00  0.120E+00
  12.560  0.119E+00  0.119E+00
  12.570  0.119E+00  0.119E+00
  12.580  0.119E+00  0.119E+00
  12.590  0.119E+00  0.119E+00
  12.600  0.119E+00  0.119E+00
  12.610  0.119E+00  0.119E+00
  12.620  0.119E+00  0.119E+00
  12.630  0.118E+00  0.118E+00
  12.640  0.118E+00  0.118E+00
  12.650  0.118E+00  0.118E+00
  12.660  0.118E+00  0.118E+00
  12.670  0.118E+00  0.118E+00
  12.680  0.118E+00  0.118E+00
  12.690  0.117E+00  0.117E+00
  12.700  0.117E+00  0.117E+00
  12.710  0.117E+00  0.117E+00
  12.720  0.117E+00  0.117E+00
  12.730  0.117E+00  0.117E+00
  12.740  0.117E+00  0.117E+00
  12.750  0.116E+00  0.116E+00
  12.760  0.116E+00  0.116E+00
  12.770  0.116E+00  0.116E+00
  12.780  0.116E+00  0.116E+00
  12.790  0.116E+00  0.116E+00
  12.800  0.116E+00  0.116E+00
  12.810  0.115E+00  0.115E+00
  12.820  0.115E+00  0.115E+00
  12.830  0.115E+00  0.115E+00
  12.840  0.115E+00  0.115E+00
  12.850  0.115E+00  0.115E+00
  12.860  0.115E+00  0.115E+00
  12.870  0.115E+00  0.115E+00
  12.880  0.114E+00  0.114E+00
  12.890  0.114E+00  0.114E+00
  12.900  0.114E+00  0.114E+00
  12.910  0.114E+00  0.114E+00
  12.920  0.114E+00  0.114E+00
  12.930  0.114E+00  0.114E+00
  12.940  0.114E+00  0.114E+00
  12.950  0.113E+00  0.113E+00
  12.960  0.113E+00  0.113E+00
  12.970  0.113E+00  0.113E+00
  12.980  0.113E+00  0.113E+00
  12.990  0.113E+00  0.113E+00
  13.000  0.113E+00  0.113E+00
  13.010  0.113E+00  0.113E+00
  13.020  0.113E+00  0.113E+00
  13.030  0.113E+00  0.113E+00
  13.040  0.113E+00  0.113E+00
  13.050  0.112E+00  0.112E+00
  13.060  0.112E+00  0.112E+00
  13.070  0.112E+00  0.112E+00
  13.080  0.112E+00  0.112E+00
  13.090  0.112E+00  0.112E+00
  13.100  0.112E+00  0.112E+00
  13.110  0.112E+00  0.112E+00
  13.120  0.112E+00  0.112E+00
  13.130  0.112E+00  0.112E+00
  13.140  0.112E+00  0.112E+00
  13.150  0.112E+00  0.112E+00
  13.160  0.112E+00  0.112E+00
  13.170  0.112E+00  0.112E+00
  13.180  0.111E+00  0.111E+00
  13.190  0.111E+00  0.111E+00
  13.200  0.111E+00  0.111E+00
  13.210  0.111E+00  0.111E+00
  13.220  0.111E+00  0.111E+00
  13.230  0.111E+00  0.111E+00
  13.240  0.111E+00  0.111E+00
  13.250  0.111E+00  0.111E+00
  13.260  0.111E+00  0.111E+00
  13.270  0.111E+00  0.111E+00
  13.280  0.111E+00  0.111E+00
  13.290  0.111E+00  0.111E+00
  13.300  0.111E+00  0.111E+00
  13.310  0.111E+00  0.111E+00
  13.320  0.111E+00  0.111E+00
  13.330  0.111E+00  0.111E+00
  13.340  0.111E+00  0.111E+00
  13.350  0.111E+00  0.111E+00
  13.360  0.111E+00  0.111E+00
  13.370  0.111E+00  0.111E+00
  13.380  0.110E+00  0.110E+00
  13.390  0.110E+00  0.110E+00
  13.400  0.110E+00  0.110E+00
  13.410  0.110E+00  0.110E+00
  13.420  0.110E+00  0.110E+00
  13.430  0.110E+00  0.110E+00
  13.440  0.110E+00  0.110E+00
  13.450  0.110E+00  0.110E+00
  13.460  0.110E+00  0.110E+00
  13.470  0.110E+00  0.110E+00
  13.480  0.110E+00  0.110E+00
  13.490  0.110E+00  0.110E+00
  13.500  0.110E+00  0.110E+00
  13.510  0.110E+00  0.110E+00
  13.520  0.109E+00  0.109E+00
  13.530  0.109E+00  0.109E+00
  13.540  0.109E+00  0.109E+00
  13.550  0.109E+00  0.109E+00
  13.560  0.109E+00  0.109E+00
  13.570  0.109E+00  0.109E+00
  13.580  0.109E+00  0.109E+00
  13.590  0.109E+00  0.109E+00
  13.600  0.109E+00  0.109E+00
  13.610  0.108E+00  0.108E+00
  13.620  0.108E+00  0.108E+00
  13.630  0.108E+00  0.108E+00
  13.640  0.108E+00  0.108E+00
  13.650  0.108E+00  0.108E+00
  13.660  0.108E+00  0.108E+00
  13.670  0.108E+00  0.108E+00
  13.680  0.107E+00  0.107E+00
  13.690  0.107E+00  0.107E+00
  13.700  0.107E+00  0.107E+00
  13.710  0.107E+00  0.107E+00
  13.720  0.107E+00  0.107E+00
  13.730  0.107E+00  0.107E+00
  13.740  0.106E+00  0.106E+00
  13.750  0.106E+00  0.106E+00
  13.760  0.106E+00  0.106E+00
  13.770  0.106E+00  0.106E+00
  13.780  0.106E+00  0.106E+00
  13.790  0.105E+00  0.105E+00
  13.800  0.105E+00  0.105E+00
  13.810  0.105E+00  0.105E+00
  13.820  0.105E+00  0.105E+00
  13.830  0.105E+00  0.105E+00
  13.840  0.104E+00  0.104E+00
  13.850  0.104E+00  0.104E+00
  13.860  0.104E+00  0.104E+00
  13.870  0.104E+00  0.104E+00
  13.880  0.104E+00  0.104E+00
  13.890  0.103E+00  0.103E+00
  13.900  0.103E+00  0.103E+00
  13.910  0.103E+00  0.103E+00
  13.920  0.103E+00  0.103E+00
  13.930  0.103E+00  0.103E+00
  13.940  0.102E+00  0.102E+00
  13.950  0.102E+00  0.102E+00
  13.960  0.102E+00  0.102E+00
  13.970  0.102E+00  0.102E+00
  13.980  0.101E+00  0.101E+00
  13.990  0.101E+00  0.101E+00
  14.000  0.101E+00  0.101E+00
  14.010  0.101E+00  0.101E+00
  14.020  0.101E+00  0.101E+00
  14.030  0.100E+00  0.100E+00
  14.040  0.100E+00  0.100E+00
  14.050  0.999E-01  0.999E-01
  14.060  0.997E-01  0.997E-01
  14.070  0.995E-01  0.995E-01
  14.080  0.993E-01  0.993E-01
  14.090  0.990E-01  0.990E-01
  14.100  0.988E-01  0.988E-01
  14.110  0.986E-01  0.986E-01
  14.120  0.984E-01  0.984E-01
  14.130  0.982E-01  0.982E-01
  14.140  0.979E-01  0.979E-01
  14.150  0.977E-01  0.977E-01
  14.160  0.975E-01  0.975E-01
  14.170  0.973E-01  0.973E-01
  14.180  0.971E-01  0.971E-01
  14.190  0.969E-01  0.969E-01
  14.200  0.966E-01  0.966E-01
  14.210  0.964E-01  0.964E-01
  14.220  0.962E-01  0.962E-01
  14.230  0.960E-01  0.960E-01
  14.240  0.958E-01  0.958E-01
  14.250  0.956E-01  0.956E-01
  14.260  0.954E-01  0.954E-01
  14.270  0.952E-01  0.952E-01
  14.280  0.949E-01  0.949E-01
  14.290  0.947E-01  0.947E-01
  14.300  0.945E-01  0.945E-01
  14.310  0.943E-01  0.943E-01
  14.320  0.941E-01  0.941E-01
  14.330  0.939E-01  0.939E-01
  14.340  0.937E-01  0.937E-01
  14.350  0.935E-01  0.935E-01
  14.360  0.932E-01  0.932E-01
  14.370  0.930E-01  0.930E-01
  14.380  0.928E-01  0.928E-01
  14.390  0.926E-01  0.926E-01
  14.400  0.924E-01  0.924E-01
  14.410  0.922E-01  0.922E-01
  14.420  0.920E-01  0.920E-01
  14.430  0.918E-01  0.918E-01
  14.440  0.915E-01  0.915E-01
  14.450  0.913E-01  0.913E-01
  14.460  0.911E-01  0.911E-01
  14.470  0.909E-01  0.909E-01
  14.480  0.907E-01  0.907E-01
  14.490  0.905E-01  0.905E-01
  14.500  0.902E-01  0.902E-01
  14.510  0.900E-01  0.900E-01
  14.520  0.898E-01  0.898E-01
  14.530  0.896E-01  0.896E-01
  14.540  0.894E-01  0.894E-01
  14.550  0.891E-01  0.891E-01
  14.560  0.889E-01  0.889E-01
  14.570  0.887E-01  0.887E-01
  14.580  0.885E-01  0.885E-01
  14.590  0.882E-01  0.882E-01
  14.600  0.880E-01  0.880E-01
  14.610  0.878E-01  0.878E-01
  14.620  0.876E-01  0.876E-01
  14.630  0.874E-01  0.874E-01
  14.640  0.871E-01  0.871E-01
  14.650  0.869E-01  0.869E-01
  14.660  0.867E-01  0.867E-01
  14.670  0.865E-01  0.865E-01
  14.680  0.862E-01  0.862E-01
  14.690  0.860E-01  0.860E-01
  14.700  0.858E-01  0.858E-01
  14.710  0.855E-01  0.855E-01
  14.720  0.853E-01  0.853E-01
  14.730  0.851E-01  0.851E-01
  14.740  0.849E-01  0.849E-01
  14.750  0.846E-01  0.846E-01
  14.760  0.844E-01  0.844E-01
  14.770  0.842E-01  0.842E-01
  14.780  0.840E-01  0.840E-01
  14.790  0.838E-01  0.838E-01
  14.800  0.835E-01  0.835E-01
  14.810  0.833E-01  0.833E-01
  14.820  0.831E-01  0.831E-01
  14.830  0.829E-01  0.829E-01
  14.840  0.827E-01  0.827E-01
  14.850  0.824E-01  0.824E-01
  14.860  0.822E-01  0.822E-01
  14.870  0.820E-01  0.820E-01
  14.880  0.818E-01  0.818E-01
  14.890  0.816E-01  0.816E-01
  14.900  0.814E-01  0.814E-01
  14.910  0.812E-01  0.812E-01
  14.920  0.809E-01  0.809E-01
  14.930  0.807E-01  0.807E-01
  14.940  0.805E-01  0.805E-01
  14.950  0.803E-01  0.803E-01
  14.960  0.801E-01  0.801E-01
  14.970  0.799E-01  0.799E-01
  14.980  0.797E-01  0.797E-01
  14.990  0.795E-01  0.795E-01
  15.000  0.793E-01  0.793E-01
  15.010  0.791E-01  0.791E-01
  15.020  0.789E-01  0.789E-01
  15.030  0.787E-01  0.787E-01
  15.040  0.785E-01  0.785E-01
  15.050  0.783E-01  0.783E-01
  15.060  0.781E-01  0.781E-01
  15.070  0.779E-01  0.779E-01
  15.080  0.777E-01  0.777E-01
  15.090  0.776E-01  0.776E-01
  15.100  0.774E-01  0.774E-01
  15.110  0.772E-01  0.772E-01
  15.120  0.770E-01  0.770E-01
  15.130  0.768E-01  0.768E-01
  15.140  0.766E-01  0.766E-01
  15.150  0.764E-01  0.764E-01
  15.160  0.762E-01  0.762E-01
  15.170  0.761E-01  0.761E-01
  15.180  0.759E-01  0.759E-01
  15.190  0.757E-01  0.757E-01
  15.200  0.755E-01  0.755E-01
  15.210  0.753E-01  0.753E-01
  15.220  0.751E-01  0.751E-01
  15.230  0.749E-01  0.749E-01
  15.240  0.748E-01  0.748E-01
  15.250  0.746E-01  0.746E-01
  15.260  0.744E-01  0.744E-01
  15.270  0.742E-01  0.742E-01
  15.280  0.740E-01  0.740E-01
  15.290  0.738E-01  0.738E-01
  15.300  0.736E-01  0.736E-01
  15.310  0.735E-01  0.735E-01
  15.320  0.733E-01  0.733E-01
  15.330  0.731E-01  0.731E-01
  15.340  0.729E-01  0.729E-01
  15.350  0.727E-01  0.727E-01
  15.360  0.725E-01  0.725E-01
  15.370  0.723E-01  0.723E-01
  15.380  0.721E-01  0.721E-01
  15.390  0.719E-01  0.719E-01
  15.400  0.717E-01  0.717E-01
  15.410  0.715E-01  0.715E-01
  15.420  0.713E-01  0.713E-01
  15.430  0.711E-01  0.711E-01
  15.440  0.709E-01  0.709E-01
  15.450  0.707E-01  0.707E-01
  15.460  0.705E-01  0.705E-01
  15.470  0.703E-01  0.703E-01
  15.480  0.701E-01  0.701E-01
  15.490  0.699E-01  0.699E-01
  15.500  0.696E-01  0.696E-01
  15.510  0.694E-01  0.694E-01
  15.520  0.692E-01  0.692E-01
  15.530  0.690E-01  0.690E-01
  15.540  0.688E-01  0.688E-01
  15.550  0.685E-01  0.685E-01
  15.560  0.683E-01  0.683E-01
  15.570  0.681E-01  0.681E-01
  15.580  0.679E-01  0.679E-01
  15.590  0.676E-01  0.676E-01
  15.600  0.674E-01  0.674E-01
  15.610  0.672E-01  0.672E-01
  15.620  0.669E-01  0.669E-01
  15.630  0.667E-01  0.667E-01
  15.640  0.665E-01  0.665E-01
  15.650  0.662E-01  0.662E-01
  15.660  0.660E-01  0.660E-01
  15.670  0.658E-01  0.658E-01
  15.680  0.655E-01  0.655E-01
  15.690  0.653E-01  0.653E-01
  15.700  0.650E-01  0.650E-01
  15.710  0.648E-01  0.648E-01
  15.720  0.645E-01  0.645E-01
  15.730  0.643E-01  0.643E-01
  15.740  0.641E-01  0.641E-01
  15.750  0.638E-01  0.638E-01
  15.760  0.636E-01  0.636E-01
  15.770  0.633E-01  0.633E-01
  15.780  0.631E-01  0.631E-01
  15.790  0.628E-01  0.628E-01
  15.800  0.626E-01  0.626E-01
  15.810  0.624E-01  0.624E-01
  15.820  0.621E-01  0.621E-01
  15.830  0.619E-01  0.619E-01
  15.840  0.616E-01  0.616E-01
  15.850  0.614E-01  0.614E-01
  15.860  0.612E-01  0.612E-01
  15.870  0.609E-01  0.609E-01
  15.880  0.607E-01  0.607E-01
  15.890  0.604E-01  0.604E-01
  15.900  0.602E-01  0.602E-01
  15.910  0.600E-01  0.600E-01
  15.920  0.597E-01  0.597E-01
  15.930  0.595E-01  0.595E-01
  15.940  0.593E-01  0.593E-01
  15.950  0.591E-01  0.591E-01
  15.960  0.588E-01  0.588E-01
  15.970  0.586E-01  0.586E-01
  15.980  0.584E-01  0.584E-01
  15.990  0.582E-01  0.582E-01
  16.000  0.580E-01  0.580E-01
  16.010  0.578E-01  0.578E-01
  16.020  0.576E-01  0.576E-01
  16.030  0.574E-01  0.574E-01
  16.040  0.572E-01  0.572E-01
  16.050  0.570E-01  0.570E-01
  16.060  0.568E-01  0.568E-01
  16.070  0.566E-01  0.566E-01
  16.080  0.564E-01  0.564E-01
  16.090  0.562E-01  0.562E-01
  16.100  0.560E-01  0.560E-01
  16.110  0.559E-01  0.559E-01
  16.120  0.557E-01  0.557E-01
  16.130  0.555E-01  0.555E-01
  16.140  0.554E-01  0.554E-01
  16.150  0.552E-01  0.552E-01
  16.160  0.550E-01  0.550E-01
  16.170  0.549E-01  0.549E-01
  16.180  0.547E-01  0.547E-01
  16.190  0.546E-01  0.546E-01
  16.200  0.544E-01  0.544E-01
  16.210  0.543E-01  0.543E-01
  16.220  0.542E-01  0.542E-01
  16.230  0.540E-01  0.540E-01
  16.240  0.539E-01  0.539E-01
  16.250  0.538E-01  0.538E-01
  16.260  0.536E-01  0.536E-01
  16.270  0.535E-01  0.535E-01
  16.280  0.534E-01  0.534E-01
  16.290  0.533E-01  0.533E-01
  16.300  0.532E-01  0.532E-01
  16.310  0.531E-01  0.531E-01
  16.320  0.530E-01  0.530E-01
  16.330  0.529E-01  0.529E-01
  16.340  0.528E-01  0.528E-01
  16.350  0.527E-01  0.527E-01
  16.360  0.526E-01  0.526E-01
  16.370  0.525E-01  0.525E-01
  16.380  0.524E-01  0.524E-01
  16.390  0.523E-01  0.523E-01
  16.400  0.523E-01  0.523E-01
  16.410  0.522E-01  0.522E-01
  16.420  0.521E-01  0.521E-01
  16.430  0.520E-01  0.520E-01
  16.440  0.520E-01  0.520E-01
  16.450  0.519E-01  0.519E-01
  16.460  0.518E-01  0.518E-01
  16.470  0.518E-01  0.518E-01
  16.480  0.517E-01  0.517E-01
  16.490  0.516E-01  0.516E-01
  16.500  0.516E-01  0.516E-01
  16.510  0.515E-01  0.515E-01
  16.520  0.514E-01  0.514E-01
  16.530  0.514E-01  0.514E-01
  16.540  0.513E-01  0.513E-01
  16.550  0.513E-01  0.513E-01
  16.560  0.512E-01  0.512E-01
  16.570  0.511E-01  0.511E-01
  16.580  0.511E-01  0.511E-01
  16.590  0.510E-01  0.510E-01
  16.600  0.510E-01  0.510E-01
  16.610  0.509E-01  0.509E-01
  16.620  0.508E-01  0.508E-01
  16.630  0.508E-01  0.508E-01
  16.640  0.507E-01  0.507E-01
  16.650  0.506E-01  0.506E-01
  16.660  0.506E-01  0.506E-01
  16.670  0.505E-01  0.505E-01
  16.680  0.504E-01  0.504E-01
  16.690  0.504E-01  0.504E-01
  16.700  0.503E-01  0.503E-01
  16.710  0.502E-01  0.502E-01
  16.720  0.501E-01  0.501E-01
  16.730  0.500E-01  0.500E-01
  16.740  0.500E-01  0.500E-01
  16.750  0.499E-01  0.499E-01
  16.760  0.498E-01  0.498E-01
  16.770  0.497E-01  0.497E-01
  16.780  0.496E-01  0.496E-01
  16.790  0.495E-01  0.495E-01
  16.800  0.494E-01  0.494E-01
  16.810  0.493E-01  0.493E-01
  16.820  0.492E-01  0.492E-01
  16.830  0.491E-01  0.491E-01
  16.840  0.490E-01  0.490E-01
  16.850  0.489E-01  0.489E-01
  16.860  0.488E-01  0.488E-01
  16.870  0.487E-01  0.487E-01
  16.880  0.485E-01  0.485E-01
  16.890  0.484E-01  0.484E-01
  16.900  0.483E-01  0.483E-01
  16.910  0.482E-01  0.482E-01
  16.920  0.480E-01  0.480E-01
  16.930  0.479E-01  0.479E-01
  16.940  0.478E-01  0.478E-01
  16.950  0.476E-01  0.476E-01
  16.960  0.475E-01  0.475E-01
  16.970  0.473E-01  0.473E-01
  16.980  0.472E-01  0.472E-01
  16.990  0.470E-01  0.470E-01
  17.000  0.469E-01  0.469E-01
  17.010  0.467E-01  0.467E-01
  17.020  0.465E-01  0.465E-01
  17.030  0.464E-01  0.464E-01
  17.040  0.462E-01  0.462E-01
  17.050  0.460E-01  0.460E-01
  17.060  0.459E-01  0.459E-01
  17.070  0.457E-01  0.457E-01
  17.080  0.455E-01  0.455E-01
  17.090  0.453E-01  0.453E-01
  17.100  0.452E-01  0.452E-01
  17.110  0.450E-01  0.450E-01
  17.120  0.448E-01  0.448E-01
  17.130  0.446E-01  0.446E-01
  17.140  0.444E-01  0.444E-01
  17.150  0.443E-01  0.443E-01
  17.160  0.441E-01  0.441E-01
  17.170  0.439E-01  0.439E-01
  17.180  0.437E-01  0.437E-01
  17.190  0.435E-01  0.435E-01
  17.200  0.433E-01  0.433E-01
  17.210  0.431E-01  0.431E-01
  17.220  0.429E-01  0.429E-01
  17.230  0.428E-01  0.428E-01
  17.240  0.426E-01  0.426E-01
  17.250  0.424E-01  0.424E-01
  17.260  0.422E-01  0.422E-01
  17.270  0.420E-01  0.420E-01
  17.280  0.418E-01  0.418E-01
  17.290  0.416E-01  0.416E-01
  17.300  0.415E-01  0.415E-01
  17.310  0.413E-01  0.413E-01
  17.320  0.411E-01  0.411E-01
  17.330  0.409E-01  0.409E-01
  17.340  0.407E-01  0.407E-01
  17.350  0.406E-01  0.406E-01
  17.360  0.404E-01  0.404E-01
  17.370  0.402E-01  0.402E-01
  17.380  0.401E-01  0.401E-01
  17.390  0.399E-01  0.399E-01
  17.400  0.397E-01  0.397E-01
  17.410  0.396E-01  0.396E-01
  17.420  0.394E-01  0.394E-01
  17.430  0.393E-01  0.393E-01
  17.440  0.391E-01  0.391E-01
  17.450  0.390E-01  0.390E-01
  17.460  0.388E-01  0.388E-01
  17.470  0.387E-01  0.387E-01
  17.480  0.385E-01  0.385E-01
  17.490  0.384E-01  0.384E-01
  17.500  0.383E-01  0.383E-01
  17.510  0.381E-01  0.381E-01
  17.520  0.380E-01  0.380E-01
  17.530  0.379E-01  0.379E-01
  17.540  0.378E-01  0.378E-01
  17.550  0.376E-01  0.376E-01
  17.560  0.375E-01  0.375E-01
  17.570  0.374E-01  0.374E-01
  17.580  0.373E-01  0.373E-01
  17.590  0.372E-01  0.372E-01
  17.600  0.371E-01  0.371E-01
  17.610  0.370E-01  0.370E-01
  17.620  0.369E-01  0.369E-01
  17.630  0.368E-01  0.368E-01
  17.640  0.368E-01  0.368E-01
  17.650  0.367E-01  0.367E-01
  17.660  0.366E-01  0.366E-01
  17.670  0.365E-01  0.365E-01
  17.680  0.365E-01  0.365E-01
  17.690  0.364E-01  0.364E-01
  17.700  0.363E-01  0.363E-01
  17.710  0.363E-01  0.363E-01
  17.720  0.362E-01  0.362E-01
  17.730  0.362E-01  0.362E-01
  17.740  0.361E-01  0.361E-01
  17.750  0.361E-01  0.361E-01
  17.760  0.360E-01  0.360E-01
  17.770  0.360E-01  0.360E-01
  17.780  0.360E-01  0.360E-01
  17.790  0.359E-01  0.359E-01
  17.800  0.359E-01  0.359E-01
  17.810  0.359E-01  0.359E-01
  17.820  0.358E-01  0.358E-01
  17.830  0.358E-01  0.358E-01
  17.840  0.358E-01  0.358E-01
  17.850  0.358E-01  0.358E-01
  17.860  0.358E-01  0.358E-01
  17.870  0.358E-01  0.358E-01
  17.880  0.358E-01  0.358E-01
  17.890  0.357E-01  0.357E-01
  17.900  0.357E-01  0.357E-01
  17.910  0.357E-01  0.357E-01
  17.920  0.357E-01  0.357E-01
  17.930  0.357E-01  0.357E-01
  17.940  0.357E-01  0.357E-01
  17.950  0.358E-01  0.358E-01
  17.960  0.358E-01  0.358E-01
  17.970  0.358E-01  0.358E-01
  17.980  0.358E-01  0.358E-01
  17.990  0.358E-01  0.358E-01
  18.000  0.358E-01  0.358E-01
  18.010  0.358E-01  0.358E-01
  18.020  0.358E-01  0.358E-01
  18.030  0.359E-01  0.359E-01
  18.040  0.359E-01  0.359E-01
  18.050  0.359E-01  0.359E-01
  18.060  0.359E-01  0.359E-01
  18.070  0.359E-01  0.359E-01
  18.080  0.359E-01  0.359E-01
  18.090  0.360E-01  0.360E-01
  18.100  0.360E-01  0.360E-01
  18.110  0.360E-01  0.360E-01
  18.120  0.360E-01  0.360E-01
  18.130  0.360E-01  0.360E-01
  18.140  0.361E-01  0.361E-01
  18.150  0.361E-01  0.361E-01
  18.160  0.361E-01  0.361E-01
  18.170  0.361E-01  0.361E-01
  18.180  0.361E-01  0.361E-01
  18.190  0.361E-01  0.361E-01
  18.200  0.362E-01  0.362E-01
  18.210  0.362E-01  0.362E-01
  18.220  0.362E-01  0.362E-01
  18.230  0.362E-01  0.362E-01
  18.240  0.362E-01  0.362E-01
  18.250  0.362E-01  0.362E-01
  18.260  0.362E-01  0.362E-01
  18.270  0.363E-01  0.363E-01
  18.280  0.363E-01  0.363E-01
  18.290  0.363E-01  0.363E-01
  18.300  0.363E-01  0.363E-01
  18.310  0.363E-01  0.363E-01
  18.320  0.363E-01  0.363E-01
  18.330  0.363E-01  0.363E-01
  18.340  0.363E-01  0.363E-01
  18.350  0.363E-01  0.363E-01
  18.360  0.363E-01  0.363E-01
  18.370  0.363E-01  0.363E-01
  18.380  0.363E-01  0.363E-01
  18.390  0.362E-01  0.362E-01
  18.400  0.362E-01  0.362E-01
  18.410  0.362E-01  0.362E-01
  18.420  0.362E-01  0.362E-01
  18.430  0.362E-01  0.362E-01
  18.440  0.362E-01  0.362E-01
  18.450  0.361E-01  0.361E-01
  18.460  0.361E-01  0.361E-01
  18.470  0.361E-01  0.361E-01
  18.480  0.361E-01  0.361E-01
  18.490  0.360E-01  0.360E-01
  18.500  0.360E-01  0.360E-01
  18.510  0.360E-01  0.360E-01
  18.520  0.359E-01  0.359E-01
  18.530  0.359E-01  0.359E-01
  18.540  0.359E-01  0.359E-01
  18.550  0.358E-01  0.358E-01
  18.560  0.358E-01  0.358E-01
  18.570  0.357E-01  0.357E-01
  18.580  0.357E-01  0.357E-01
  18.590  0.356E-01  0.356E-01
  18.600  0.356E-01  0.356E-01
  18.610  0.355E-01  0.355E-01
  18.620  0.355E-01  0.355E-01
  18.630  0.354E-01  0.354E-01
  18.640  0.354E-01  0.354E-01
  18.650  0.353E-01  0.353E-01
  18.660  0.353E-01  0.353E-01
  18.670  0.352E-01  0.352E-01
  18.680  0.351E-01  0.351E-01
  18.690  0.351E-01  0.351E-01
  18.700  0.350E-01  0.350E-01
  18.710  0.350E-01  0.350E-01
  18.720  0.349E-01  0.349E-01
  18.730  0.348E-01  0.348E-01
  18.740  0.348E-01  0.348E-01
  18.750  0.347E-01  0.347E-01
  18.760  0.346E-01  0.346E-01
  18.770  0.346E-01  0.346E-01
  18.780  0.345E-01  0.345E-01
  18.790  0.344E-01  0.344E-01
  18.800  0.344E-01  0.344E-01
  18.810  0.343E-01  0.343E-01
  18.820  0.342E-01  0.342E-01
  18.830  0.342E-01  0.342E-01
  18.840  0.341E-01  0.341E-01
  18.850  0.340E-01  0.340E-01
  18.860  0.340E-01  0.340E-01
  18.870  0.339E-01  0.339E-01
  18.880  0.338E-01  0.338E-01
  18.890  0.338E-01  0.338E-01
  18.900  0.337E-01  0.337E-01
  18.910  0.336E-01  0.336E-01
  18.920  0.336E-01  0.336E-01
  18.930  0.335E-01  0.335E-01
  18.940  0.335E-01  0.335E-01
  18.950  0.334E-01  0.334E-01
  18.960  0.333E-01  0.333E-01
  18.970  0.333E-01  0.333E-01
  18.980  0.332E-01  0.332E-01
  18.990  0.332E-01  0.332E-01
  19.000  0.331E-01  0.331E-01
  19.010  0.331E-01  0.331E-01
  19.020  0.330E-01  0.330E-01
  19.030  0.330E-01  0.330E-01
  19.040  0.329E-01  0.329E-01
  19.050  0.329E-01  0.329E-01
  19.060  0.328E-01  0.328E-01
  19.070  0.328E-01  0.328E-01
  19.080  0.328E-01  0.328E-01
  19.090  0.327E-01  0.327E-01
  19.100  0.327E-01  0.327E-01
  19.110  0.326E-01  0.326E-01
  19.120  0.326E-01  0.326E-01
  19.130  0.326E-01  0.326E-01
  19.140  0.326E-01  0.326E-01
  19.150  0.325E-01  0.325E-01
  19.160  0.325E-01  0.325E-01
  19.170  0.325E-01  0.325E-01
  19.180  0.325E-01  0.325E-01
  19.190  0.324E-01  0.324E-01
  19.200  0.324E-01  0.324E-01
  19.210  0.324E-01  0.324E-01
  19.220  0.324E-01  0.324E-01
  19.230  0.324E-01  0.324E-01
  19.240  0.324E-01  0.324E-01
  19.250  0.324E-01  0.324E-01
  19.260  0.324E-01  0.324E-01
  19.270  0.324E-01  0.324E-01
  19.280  0.324E-01  0.324E-01
  19.290  0.324E-01  0.324E-01
  19.300  0.324E-01  0.324E-01
  19.310  0.324E-01  0.324E-01
  19.320  0.324E-01  0.324E-01
  19.330  0.324E-01  0.324E-01
  19.340  0.325E-01  0.325E-01
  19.350  0.325E-01  0.325E-01
  19.360  0.325E-01  0.325E-01
  19.370  0.325E-01  0.325E-01
  19.380  0.325E-01  0.325E-01
  19.390  0.326E-01  0.326E-01
  19.400  0.326E-01  0.326E-01
  19.410  0.326E-01  0.326E-01
  19.420  0.327E-01  0.327E-01
  19.430  0.327E-01  0.327E-01
  19.440  0.327E-01  0.327E-01
  19.450  0.328E-01  0.328E-01
  19.460  0.328E-01  0.328E-01
  19.470  0.328E-01  0.328E-01
  19.480  0.329E-01  0.329E-01
  19.490  0.329E-01  0.329E-01
  19.500  0.330E-01  0.330E-01
  19.510  0.330E-01  0.330E-01
  19.520  0.331E-01  0.331E-01
  19.530  0.331E-01  0.331E-01
  19.540  0.332E-01  0.332E-01
  19.550  0.332E-01  0.332E-01
  19.560  0.333E-01  0.333E-01
  19.570  0.333E-01  0.333E-01
  19.580  0.334E-01  0.334E-01
  19.590  0.334E-01  0.334E-01
  19.600  0.335E-01  0.335E-01
  19.610  0.335E-01  0.335E-01
  19.620  0.336E-01  0.336E-01
  19.630  0.336E-01  0.336E-01
  19.640  0.337E-01  0.337E-01
  19.650  0.337E-01  0.337E-01
  19.660  0.338E-01  0.338E-01
  19.670  0.338E-01  0.338E-01
  19.680  0.339E-01  0.339E-01
  19.690  0.339E-01  0.339E-01
  19.700  0.340E-01  0.340E-01
  19.710  0.340E-01  0.340E-01
  19.720  0.340E-01  0.340E-01
  19.730  0.341E-01  0.341E-01
  19.740  0.341E-01  0.341E-01
  19.750  0.342E-01  0.342E-01
  19.760  0.342E-01  0.342E-01
  19.770  0.342E-01  0.342E-01
  19.780  0.343E-01  0.343E-01
  19.790  0.343E-01  0.343E-01
  19.800  0.343E-01  0.343E-01
  19.810  0.344E-01  0.344E-01
  19.820  0.344E-01  0.344E-01
  19.830  0.344E-01  0.344E-01
  19.840  0.344E-01  0.344E-01
  19.850  0.344E-01  0.344E-01
  19.860  0.344E-01  0.344E-01
  19.870  0.345E-01  0.345E-01
  19.880  0.345E-01  0.345E-01
  19.890  0.345E-01  0.345E-01
  19.900  0.345E-01  0.345E-01
  19.910  0.345E-01  0.345E-01
  19.920  0.345E-01  0.345E-01
  19.930  0.345E-01  0.345E-01
  19.940  0.344E-01  0.344E-01
  19.950  0.344E-01  0.344E-01
  19.960  0.344E-01  0.344E-01
  19.970  0.344E-01  0.344E-01
  19.980  0.343E-01  0.343E-01
  19.990  0.343E-01  0.343E-01
  20.000  0.343E-01  0.343E-01
  20.010  0.342E-01  0.342E-01
  20.020  0.342E-01  0.342E-01
  20.030  0.342E-01  0.342E-01
  20.040  0.341E-01  0.341E-01
  20.050  0.340E-01  0.340E-01
  20.060  0.340E-01  0.340E-01
  20.070  0.339E-01  0.339E-01
  20.080  0.339E-01  0.339E-01
  20.090  0.338E-01  0.338E-01
  20.100  0.337E-01  0.337E-01
  20.110  0.336E-01  0.336E-01
  20.120  0.336E-01  0.336E-01
  20.130  0.335E-01  0.335E-01
  20.140  0.334E-01  0.334E-01
  20.150  0.333E-01  0.333E-01
  20.160  0.332E-01  0.332E-01
  20.170  0.331E-01  0.331E-01
  20.180  0.330E-01  0.330E-01
  20.190  0.329E-01  0.329E-01
  20.200  0.328E-01  0.328E-01
  20.210  0.327E-01  0.327E-01
  20.220  0.326E-01  0.326E-01
  20.230  0.325E-01  0.325E-01
  20.240  0.323E-01  0.323E-01
  20.250  0.322E-01  0.322E-01
  20.260  0.321E-01  0.321E-01
  20.270  0.320E-01  0.320E-01
  20.280  0.318E-01  0.318E-01
  20.290  0.317E-01  0.317E-01
  20.300  0.316E-01  0.316E-01
  20.310  0.314E-01  0.314E-01
  20.320  0.313E-01  0.313E-01
  20.330  0.312E-01  0.312E-01
  20.340  0.310E-01  0.310E-01
  20.350  0.309E-01  0.309E-01
  20.360  0.308E-01  0.308E-01
  20.370  0.306E-01  0.306E-01
  20.380  0.305E-01  0.305E-01
  20.390  0.303E-01  0.303E-01
  20.400  0.302E-01  0.302E-01
  20.410  0.300E-01  0.300E-01
  20.420  0.299E-01  0.299E-01
  20.430  0.298E-01  0.298E-01
  20.440  0.296E-01  0.296E-01
  20.450  0.295E-01  0.295E-01
  20.460  0.293E-01  0.293E-01
  20.470  0.292E-01  0.292E-01
  20.480  0.290E-01  0.290E-01
  20.490  0.289E-01  0.289E-01
  20.500  0.288E-01  0.288E-01
  20.510  0.286E-01  0.286E-01
  20.520  0.285E-01  0.285E-01
  20.530  0.284E-01  0.284E-01
  20.540  0.282E-01  0.282E-01
  20.550  0.281E-01  0.281E-01
  20.560  0.280E-01  0.280E-01
  20.570  0.278E-01  0.278E-01
  20.580  0.277E-01  0.277E-01
  20.590  0.276E-01  0.276E-01
  20.600  0.274E-01  0.274E-01
  20.610  0.273E-01  0.273E-01
  20.620  0.272E-01  0.272E-01
  20.630  0.271E-01  0.271E-01
  20.640  0.270E-01  0.270E-01
  20.650  0.269E-01  0.269E-01
  20.660  0.268E-01  0.268E-01
  20.670  0.266E-01  0.266E-01
  20.680  0.265E-01  0.265E-01
  20.690  0.264E-01  0.264E-01
  20.700  0.263E-01  0.263E-01
  20.710  0.262E-01  0.262E-01
  20.720  0.262E-01  0.262E-01
  20.730  0.261E-01  0.261E-01
  20.740  0.260E-01  0.260E-01
  20.750  0.259E-01  0.259E-01
  20.760  0.258E-01  0.258E-01
  20.770  0.257E-01  0.257E-01
  20.780  0.257E-01  0.257E-01
  20.790  0.256E-01  0.256E-01
  20.800  0.255E-01  0.255E-01
  20.810  0.254E-01  0.254E-01
  20.820  0.254E-01  0.254E-01
  20.830  0.253E-01  0.253E-01
  20.840  0.253E-01  0.253E-01
  20.850  0.252E-01  0.252E-01
  20.860  0.252E-01  0.252E-01
  20.870  0.251E-01  0.251E-01
  20.880  0.251E-01  0.251E-01
  20.890  0.250E-01  0.250E-01
  20.900  0.250E-01  0.250E-01
  20.910  0.249E-01  0.249E-01
  20.920  0.249E-01  0.249E-01
  20.930  0.248E-01  0.248E-01
  20.940  0.248E-01  0.248E-01
  20.950  0.248E-01  0.248E-01
  20.960  0.247E-01  0.247E-01
  20.970  0.247E-01  0.247E-01
  20.980  0.247E-01  0.247E-01
  20.990  0.247E-01  0.247E-01
  21.000  0.246E-01  0.246E-01
  21.010  0.246E-01  0.246E-01
  21.020  0.246E-01  0.246E-01
  21.030  0.246E-01  0.246E-01
  21.040  0.245E-01  0.245E-01
  21.050  0.245E-01  0.245E-01
  21.060  0.245E-01  0.245E-01
  21.070  0.245E-01  0.245E-01
  21.080  0.245E-01  0.245E-01
  21.090  0.244E-01  0.244E-01
  21.100  0.244E-01  0.244E-01
  21.110  0.244E-01  0.244E-01
  21.120  0.244E-01  0.244E-01
  21.130  0.244E-01  0.244E-01
  21.140  0.244E-01  0.244E-01
  21.150  0.243E-01  0.243E-01
  21.160  0.243E-01  0.243E-01
  21.170  0.243E-01  0.243E-01
  21.180  0.243E-01  0.243E-01
  21.190  0.243E-01  0.243E-01
  21.200  0.242E-01  0.242E-01
  21.210  0.242E-01  0.242E-01
  21.220  0.242E-01  0.242E-01
  21.230  0.242E-01  0.242E-01
  21.240  0.242E-01  0.242E-01
  21.250  0.241E-01  0.241E-01
  21.260  0.241E-01  0.241E-01
  21.270  0.241E-01  0.241E-01
  21.280  0.240E-01  0.240E-01
  21.290  0.240E-01  0.240E-01
  21.300  0.240E-01  0.240E-01
  21.310  0.239E-01  0.239E-01
  21.320  0.239E-01  0.239E-01
  21.330  0.239E-01  0.239E-01
  21.340  0.238E-01  0.238E-01
  21.350  0.238E-01  0.238E-01
  21.360  0.237E-01  0.237E-01
  21.370  0.237E-01  0.237E-01
  21.380  0.237E-01  0.237E-01
  21.390  0.236E-01  0.236E-01
  21.400  0.236E-01  0.236E-01
  21.410  0.235E-01  0.235E-01
  21.420  0.234E-01  0.234E-01
  21.430  0.234E-01  0.234E-01
  21.440  0.233E-01  0.233E-01
  21.450  0.233E-01  0.233E-01
  21.460  0.232E-01  0.232E-01
  21.470  0.231E-01  0.231E-01
  21.480  0.231E-01  0.231E-01
  21.490  0.230E-01  0.230E-01
  21.500  0.229E-01  0.229E-01
  21.510  0.229E-01  0.229E-01
  21.520  0.228E-01  0.228E-01
  21.530  0.227E-01  0.227E-01
  21.540  0.226E-01  0.226E-01
  21.550  0.226E-01  0.226E-01
  21.560  0.225E-01  0.225E-01
  21.570  0.224E-01  0.224E-01
  21.580  0.223E-01  0.223E-01
  21.590  0.222E-01  0.222E-01
  21.600  0.221E-01  0.221E-01
  21.610  0.220E-01  0.220E-01
  21.620  0.220E-01  0.220E-01
  21.630  0.219E-01  0.219E-01
  21.640  0.218E-01  0.218E-01
  21.650  0.217E-01  0.217E-01
  21.660  0.216E-01  0.216E-01
  21.670  0.215E-01  0.215E-01
  21.680  0.214E-01  0.214E-01
  21.690  0.213E-01  0.213E-01
  21.700  0.212E-01  0.212E-01
  21.710  0.211E-01  0.211E-01
  21.720  0.210E-01  0.210E-01
  21.730  0.209E-01  0.209E-01
  21.740  0.208E-01  0.208E-01
  21.750  0.207E-01  0.207E-01
  21.760  0.206E-01  0.206E-01
  21.770  0.205E-01  0.205E-01
  21.780  0.204E-01  0.204E-01
  21.790  0.203E-01  0.203E-01
  21.800  0.202E-01  0.202E-01
  21.810  0.201E-01  0.201E-01
  21.820  0.200E-01  0.200E-01
  21.830  0.199E-01  0.199E-01
  21.840  0.199E-01  0.199E-01
  21.850  0.198E-01  0.198E-01
  21.860  0.197E-01  0.197E-01
  21.870  0.196E-01  0.196E-01
  21.880  0.195E-01  0.195E-01
  21.890  0.194E-01  0.194E-01
  21.900  0.193E-01  0.193E-01
  21.910  0.192E-01  0.192E-01
  21.920  0.191E-01  0.191E-01
  21.930  0.190E-01  0.190E-01
  21.940  0.189E-01  0.189E-01
  21.950  0.189E-01  0.189E-01
  21.960  0.188E-01  0.188E-01
  21.970  0.187E-01  0.187E-01
  21.980  0.186E-01  0.186E-01
  21.990  0.185E-01  0.185E-01
  22.000  0.185E-01  0.185E-01
  22.010  0.184E-01  0.184E-01
  22.020  0.183E-01  0.183E-01
  22.030  0.182E-01  0.182E-01
  22.040  0.182E-01  0.182E-01
  22.050  0.181E-01  0.181E-01
  22.060  0.180E-01  0.180E-01
  22.070  0.179E-01  0.179E-01
  22.080  0.179E-01  0.179E-01
  22.090  0.178E-01  0.178E-01
  22.100  0.178E-01  0.178E-01
  22.110  0.177E-01  0.177E-01
  22.120  0.176E-01  0.176E-01
  22.130  0.176E-01  0.176E-01
  22.140  0.175E-01  0.175E-01
  22.150  0.175E-01  0.175E-01
  22.160  0.174E-01  0.174E-01
  22.170  0.173E-01  0.173E-01
  22.180  0.173E-01  0.173E-01
  22.190  0.172E-01  0.172E-01
  22.200  0.172E-01  0.172E-01
  22.210  0.171E-01  0.171E-01
  22.220  0.171E-01  0.171E-01
  22.230  0.170E-01  0.170E-01
  22.240  0.170E-01  0.170E-01
  22.250  0.169E-01  0.169E-01
  22.260  0.169E-01  0.169E-01
  22.270  0.169E-01  0.169E-01
  22.280  0.168E-01  0.168E-01
  22.290  0.168E-01  0.168E-01
  22.300  0.167E-01  0.167E-01
  22.310  0.167E-01  0.167E-01
  22.320  0.167E-01  0.167E-01
  22.330  0.166E-01  0.166E-01
  22.340  0.166E-01  0.166E-01
  22.350  0.165E-01  0.165E-01
  22.360  0.165E-01  0.165E-01
  22.370  0.165E-01  0.165E-01
  22.380  0.164E-01  0.164E-01
  22.390  0.164E-01  0.164E-01
  22.400  0.164E-01  0.164E-01
  22.410  0.163E-01  0.163E-01
  22.420  0.163E-01  0.163E-01
  22.430  0.163E-01  0.163E-01
  22.440  0.162E-01  0.162E-01
  22.450  0.162E-01  0.162E-01
  22.460  0.161E-01  0.161E-01
  22.470  0.161E-01  0.161E-01
  22.480  0.161E-01  0.161E-01
  22.490  0.160E-01  0.160E-01
  22.500  0.160E-01  0.160E-01
  22.510  0.160E-01  0.160E-01
  22.520  0.159E-01  0.159E-01
  22.530  0.159E-01  0.159E-01
  22.540  0.159E-01  0.159E-01
  22.550  0.158E-01  0.158E-01
  22.560  0.158E-01  0.158E-01
  22.570  0.158E-01  0.158E-01
  22.580  0.157E-01  0.157E-01
  22.590  0.157E-01  0.157E-01
  22.600  0.156E-01  0.156E-01
  22.610  0.156E-01  0.156E-01
  22.620  0.156E-01  0.156E-01
  22.630  0.155E-01  0.155E-01
  22.640  0.155E-01  0.155E-01
  22.650  0.154E-01  0.154E-01
  22.660  0.154E-01  0.154E-01
  22.670  0.153E-01  0.153E-01
  22.680  0.153E-01  0.153E-01
  22.690  0.152E-01  0.152E-01
  22.700  0.152E-01  0.152E-01
  22.710  0.152E-01  0.152E-01
  22.720  0.151E-01  0.151E-01
  22.730  0.151E-01  0.151E-01
  22.740  0.150E-01  0.150E-01
  22.750  0.150E-01  0.150E-01
  22.760  0.149E-01  0.149E-01
  22.770  0.148E-01  0.148E-01
  22.780  0.148E-01  0.148E-01
  22.790  0.147E-01  0.147E-01
  22.800  0.147E-01  0.147E-01
  22.810  0.146E-01  0.146E-01
  22.820  0.146E-01  0.146E-01
  22.830  0.145E-01  0.145E-01
  22.840  0.145E-01  0.145E-01
  22.850  0.144E-01  0.144E-01
  22.860  0.143E-01  0.143E-01
  22.870  0.143E-01  0.143E-01
  22.880  0.142E-01  0.142E-01
  22.890  0.141E-01  0.141E-01
  22.900  0.141E-01  0.141E-01
  22.910  0.140E-01  0.140E-01
  22.920  0.140E-01  0.140E-01
  22.930  0.139E-01  0.139E-01
  22.940  0.138E-01  0.138E-01
  22.950  0.137E-01  0.137E-01
  22.960  0.137E-01  0.137E-01
  22.970  0.136E-01  0.136E-01
  22.980  0.135E-01  0.135E-01
  22.990  0.135E-01  0.135E-01
  23.000  0.134E-01  0.134E-01
  23.010  0.133E-01  0.133E-01
  23.020  0.133E-01  0.133E-01
  23.030  0.132E-01  0.132E-01
  23.040  0.131E-01  0.131E-01
  23.050  0.130E-01  0.130E-01
  23.060  0.130E-01  0.130E-01
  23.070  0.129E-01  0.129E-01
  23.080  0.128E-01  0.128E-01
  23.090  0.127E-01  0.127E-01
  23.100  0.127E-01  0.127E-01
  23.110  0.126E-01  0.126E-01
  23.120  0.125E-01  0.125E-01
  23.130  0.124E-01  0.124E-01
  23.140  0.123E-01  0.123E-01
  23.150  0.123E-01  0.123E-01
  23.160  0.122E-01  0.122E-01
  23.170  0.121E-01  0.121E-01
  23.180  0.120E-01  0.120E-01
  23.190  0.120E-01  0.120E-01
  23.200  0.119E-01  0.119E-01
  23.210  0.118E-01  0.118E-01
  23.220  0.117E-01  0.117E-01
  23.230  0.116E-01  0.116E-01
  23.240  0.116E-01  0.116E-01
  23.250  0.115E-01  0.115E-01
  23.260  0.114E-01  0.114E-01
  23.270  0.113E-01  0.113E-01
  23.280  0.113E-01  0.113E-01
  23.290  0.112E-01  0.112E-01
  23.300  0.111E-01  0.111E-01
  23.310  0.110E-01  0.110E-01
  23.320  0.109E-01  0.109E-01
  23.330  0.109E-01  0.109E-01
  23.340  0.108E-01  0.108E-01
  23.350  0.107E-01  0.107E-01
  23.360  0.106E-01  0.106E-01
  23.370  0.106E-01  0.106E-01
  23.380  0.105E-01  0.105E-01
  23.390  0.104E-01  0.104E-01
  23.400  0.103E-01  0.103E-01
  23.410  0.103E-01  0.103E-01
  23.420  0.102E-01  0.102E-01
  23.430  0.101E-01  0.101E-01
  23.440  0.101E-01  0.101E-01
  23.450  0.999E-02  0.999E-02
  23.460  0.992E-02  0.992E-02
  23.470  0.985E-02  0.985E-02
  23.480  0.978E-02  0.978E-02
  23.490  0.971E-02  0.971E-02
  23.500  0.965E-02  0.965E-02
  23.510  0.958E-02  0.958E-02
  23.520  0.952E-02  0.952E-02
  23.530  0.945E-02  0.945E-02
  23.540  0.939E-02  0.939E-02
  23.550  0.932E-02  0.932E-02
  23.560  0.926E-02  0.926E-02
  23.570  0.920E-02  0.920E-02
  23.580  0.914E-02  0.914E-02
  23.590  0.908E-02  0.908E-02
  23.600  0.902E-02  0.902E-02
  23.610  0.896E-02  0.896E-02
  23.620  0.891E-02  0.891E-02
  23.630  0.885E-02  0.885E-02
  23.640  0.879E-02  0.879E-02
  23.650  0.874E-02  0.874E-02
  23.660  0.869E-02  0.869E-02
  23.670  0.863E-02  0.863E-02
  23.680  0.858E-02  0.858E-02
  23.690  0.853E-02  0.853E-02
  23.700  0.848E-02  0.848E-02
  23.710  0.843E-02  0.843E-02
  23.720  0.838E-02  0.838E-02
  23.730  0.833E-02  0.833E-02
  23.740  0.828E-02  0.828E-02
  23.750  0.824E-02  0.824E-02
  23.760  0.819E-02  0.819E-02
  23.770  0.815E-02  0.815E-02
  23.780  0.810E-02  0.810E-02
  23.790  0.806E-02  0.806E-02
  23.800  0.802E-02  0.802E-02
  23.810  0.798E-02  0.798E-02
  23.820  0.794E-02  0.794E-02
  23.830  0.790E-02  0.790E-02
  23.840  0.786E-02  0.786E-02
  23.850  0.782E-02  0.782E-02
  23.860  0.778E-02  0.778E-02
  23.870  0.775E-02  0.775E-02
  23.880  0.771E-02  0.771E-02
  23.890  0.767E-02  0.767E-02
  23.900  0.764E-02  0.764E-02
  23.910  0.761E-02  0.761E-02
  23.920  0.757E-02  0.757E-02
  23.930  0.754E-02  0.754E-02
  23.940  0.751E-02  0.751E-02
  23.950  0.748E-02  0.748E-02
  23.960  0.745E-02  0.745E-02
  23.970  0.742E-02  0.742E-02
  23.980  0.739E-02  0.739E-02
  23.990  0.736E-02  0.736E-02
  24.000  0.733E-02  0.733E-02
  24.010  0.730E-02  0.730E-02
  24.020  0.727E-02  0.727E-02
  24.030  0.725E-02  0.725E-02
  24.040  0.722E-02  0.722E-02
  24.050  0.720E-02  0.720E-02
  24.060  0.717E-02  0.717E-02
  24.070  0.715E-02  0.715E-02
  24.080  0.712E-02  0.712E-02
  24.090  0.710E-02  0.710E-02
  24.100  0.708E-02  0.708E-02
  24.110  0.705E-02  0.705E-02
  24.120  0.703E-02  0.703E-02
  24.130  0.701E-02  0.701E-02
  24.140  0.699E-02  0.699E-02
  24.150  0.696E-02  0.696E-02
  24.160  0.694E-02  0.694E-02
  24.170  0.692E-02  0.692E-02
  24.180  0.690E-02  0.690E-02
  24.190  0.688E-02  0.688E-02
  24.200  0.686E-02  0.686E-02
  24.210  0.684E-02  0.684E-02
  24.220  0.682E-02  0.682E-02
  24.230  0.680E-02  0.680E-02
  24.240  0.679E-02  0.679E-02
  24.250  0.677E-02  0.677E-02
  24.260  0.675E-02  0.675E-02
  24.270  0.673E-02  0.673E-02
  24.280  0.671E-02  0.671E-02
  24.290  0.670E-02  0.670E-02
  24.300  0.668E-02  0.668E-02
  24.310  0.666E-02  0.666E-02
  24.320  0.664E-02  0.664E-02
  24.330  0.663E-02  0.663E-02
  24.340  0.661E-02  0.661E-02
  24.350  0.659E-02  0.659E-02
  24.360  0.658E-02  0.658E-02
  24.370  0.656E-02  0.656E-02
  24.380  0.655E-02  0.655E-02
  24.390  0.653E-02  0.653E-02
  24.400  0.651E-02  0.651E-02
  24.410  0.650E-02  0.650E-02
  24.420  0.648E-02  0.648E-02
  24.430  0.647E-02  0.647E-02
  24.440  0.645E-02  0.645E-02
  24.450  0.644E-02  0.644E-02
  24.460  0.642E-02  0.642E-02
  24.470  0.641E-02  0.641E-02
  24.480  0.639E-02  0.639E-02
  24.490  0.638E-02  0.638E-02
  24.500  0.636E-02  0.636E-02
  24.510  0.635E-02  0.635E-02
  24.520  0.633E-02  0.633E-02
  24.530  0.632E-02  0.632E-02
  24.540  0.631E-02  0.631E-02
  24.550  0.629E-02  0.629E-02
  24.560  0.628E-02  0.628E-02
  24.570  0.627E-02  0.627E-02
  24.580  0.625E-02  0.625E-02
  24.590  0.624E-02  0.624E-02
  24.600  0.623E-02  0.623E-02
  24.610  0.621E-02  0.621E-02
  24.620  0.620E-02  0.620E-02
  24.630  0.619E-02  0.619E-02
  24.640  0.618E-02  0.618E-02
  24.650  0.616E-02  0.616E-02
  24.660  0.615E-02  0.615E-02
  24.670  0.614E-02  0.614E-02
  24.680  0.613E-02  0.613E-02
  24.690  0.612E-02  0.612E-02
  24.700  0.611E-02  0.611E-02
  24.710  0.610E-02  0.610E-02
  24.720  0.609E-02  0.609E-02
  24.730  0.607E-02  0.607E-02
  24.740  0.606E-02  0.606E-02
  24.750  0.605E-02  0.605E-02
  24.760  0.605E-02  0.605E-02
  24.770  0.604E-02  0.604E-02
  24.780  0.603E-02  0.603E-02
  24.790  0.602E-02  0.602E-02
  24.800  0.601E-02  0.601E-02
  24.810  0.600E-02  0.600E-02
  24.820  0.599E-02  0.599E-02
  24.830  0.599E-02  0.599E-02
  24.840  0.598E-02  0.598E-02
  24.850  0.597E-02  0.597E-02
  24.860  0.596E-02  0.596E-02
  24.870  0.596E-02  0.596E-02
  24.880  0.595E-02  0.595E-02
  24.890  0.594E-02  0.594E-02
  24.900  0.594E-02  0.594E-02
  24.910  0.593E-02  0.593E-02
  24.920  0.593E-02  0.593E-02
  24.930  0.592E-02  0.592E-02
  24.940  0.592E-02  0.592E-02
  24.950  0.591E-02  0.591E-02
  24.960  0.591E-02  0.591E-02
  24.970  0.591E-02  0.591E-02
  24.980  0.590E-02  0.590E-02
  24.990  0.590E-02  0.590E-02
  25.000  0.590E-02  0.590E-02
  25.010  0.589E-02  0.589E-02
  25.020  0.589E-02  0.589E-02
  25.030  0.589E-02  0.589E-02
  25.040  0.589E-02  0.589E-02
  25.050  0.589E-02  0.589E-02
  25.060  0.589E-02  0.589E-02
  25.070  0.588E-02  0.588E-02
  25.080  0.588E-02  0.588E-02
  25.090  0.588E-02  0.588E-02
  25.100  0.588E-02  0.588E-02
  25.110  0.588E-02  0.588E-02
  25.120  0.588E-02  0.588E-02
  25.130  0.588E-02  0.588E-02
  25.140  0.588E-02  0.588E-02
  25.150  0.588E-02  0.588E-02
  25.160  0.588E-02  0.588E-02
  25.170  0.589E-02  0.589E-02
  25.180  0.589E-02  0.589E-02
  25.190  0.589E-02  0.589E-02
  25.200  0.589E-02  0.589E-02
  25.210  0.589E-02  0.589E-02
  25.220  0.589E-02  0.589E-02
  25.230  0.589E-02  0.589E-02
  25.240  0.590E-02  0.590E-02
  25.250  0.590E-02  0.590E-02
  25.260  0.590E-02  0.590E-02
  25.270  0.590E-02  0.590E-02
  25.280  0.590E-02  0.590E-02
  25.290  0.591E-02  0.591E-02
  25.300  0.591E-02  0.591E-02
  25.310  0.591E-02  0.591E-02
  25.320  0.591E-02  0.591E-02
  25.330  0.591E-02  0.591E-02
  25.340  0.592E-02  0.592E-02
  25.350  0.592E-02  0.592E-02
  25.360  0.592E-02  0.592E-02
  25.370  0.592E-02  0.592E-02
  25.380  0.592E-02  0.592E-02
  25.390  0.592E-02  0.592E-02
  25.400  0.593E-02  0.593E-02
  25.410  0.593E-02  0.593E-02
  25.420  0.593E-02  0.593E-02
  25.430  0.593E-02  0.593E-02
  25.440  0.593E-02  0.593E-02
  25.450  0.593E-02  0.593E-02
  25.460  0.593E-02  0.593E-02
  25.470  0.593E-02  0.593E-02
  25.480  0.593E-02  0.593E-02
  25.490  0.593E-02  0.593E-02
  25.500  0.593E-02  0.593E-02
  25.510  0.593E-02  0.593E-02
  25.520  0.593E-02  0.593E-02
  25.530  0.593E-02  0.593E-02
  25.540  0.592E-02  0.592E-02
  25.550  0.592E-02  0.592E-02
  25.560  0.592E-02  0.592E-02
  25.570  0.592E-02  0.592E-02
  25.580  0.591E-02  0.591E-02
  25.590  0.591E-02  0.591E-02
  25.600  0.590E-02  0.590E-02
  25.610  0.590E-02  0.590E-02
  25.620  0.589E-02  0.589E-02
  25.630  0.589E-02  0.589E-02
  25.640  0.588E-02  0.588E-02
  25.650  0.588E-02  0.588E-02
  25.660  0.587E-02  0.587E-02
  25.670  0.586E-02  0.586E-02
  25.680  0.585E-02  0.585E-02
  25.690  0.585E-02  0.585E-02
  25.700  0.584E-02  0.584E-02
  25.710  0.583E-02  0.583E-02
  25.720  0.582E-02  0.582E-02
  25.730  0.581E-02  0.581E-02
  25.740  0.580E-02  0.580E-02
  25.750  0.579E-02  0.579E-02
  25.760  0.577E-02  0.577E-02
  25.770  0.576E-02  0.576E-02
  25.780  0.575E-02  0.575E-02
  25.790  0.573E-02  0.573E-02
  25.800  0.572E-02  0.572E-02
  25.810  0.570E-02  0.570E-02
  25.820  0.569E-02  0.569E-02
  25.830  0.567E-02  0.567E-02
  25.840  0.565E-02  0.565E-02
  25.850  0.564E-02  0.564E-02
  25.860  0.562E-02  0.562E-02
  25.870  0.560E-02  0.560E-02
  25.880  0.558E-02  0.558E-02
  25.890  0.556E-02  0.556E-02
  25.900  0.554E-02  0.554E-02
  25.910  0.552E-02  0.552E-02
  25.920  0.549E-02  0.549E-02
  25.930  0.547E-02  0.547E-02
  25.940  0.545E-02  0.545E-02
  25.950  0.542E-02  0.542E-02
  25.960  0.540E-02  0.540E-02
  25.970  0.537E-02  0.537E-02
  25.980  0.535E-02  0.535E-02
  25.990  0.532E-02  0.532E-02
  26.000  0.529E-02  0.529E-02
  26.010  0.526E-02  0.526E-02
  26.020  0.524E-02  0.524E-02
  26.030  0.521E-02  0.521E-02
  26.040  0.518E-02  0.518E-02
  26.050  0.515E-02  0.515E-02
  26.060  0.512E-02  0.512E-02
  26.070  0.508E-02  0.508E-02
  26.080  0.505E-02  0.505E-02
  26.090  0.502E-02  0.502E-02
  26.100  0.499E-02  0.499E-02
  26.110  0.495E-02  0.495E-02
  26.120  0.492E-02  0.492E-02
  26.130  0.489E-02  0.489E-02
  26.140  0.485E-02  0.485E-02
  26.150  0.482E-02  0.482E-02
  26.160  0.478E-02  0.478E-02
  26.170  0.474E-02  0.474E-02
  26.180  0.471E-02  0.471E-02
  26.190  0.467E-02  0.467E-02
  26.200  0.463E-02  0.463E-02
  26.210  0.460E-02  0.460E-02
  26.220  0.456E-02  0.456E-02
  26.230  0.452E-02  0.452E-02
  26.240  0.448E-02  0.448E-02
  26.250  0.444E-02  0.444E-02
  26.260  0.441E-02  0.441E-02
  26.270  0.437E-02  0.437E-02
  26.280  0.433E-02  0.433E-02
  26.290  0.429E-02  0.429E-02
  26.300  0.425E-02  0.425E-02
  26.310  0.421E-02  0.421E-02
  26.320  0.417E-02  0.417E-02
  26.330  0.413E-02  0.413E-02
  26.340  0.409E-02  0.409E-02
  26.350  0.405E-02  0.405E-02
  26.360  0.401E-02  0.401E-02
  26.370  0.397E-02  0.397E-02
  26.380  0.393E-02  0.393E-02
  26.390  0.389E-02  0.389E-02
  26.400  0.385E-02  0.385E-02
  26.410  0.382E-02  0.382E-02
  26.420  0.378E-02  0.378E-02
  26.430  0.374E-02  0.374E-02
  26.440  0.370E-02  0.370E-02
  26.450  0.366E-02  0.366E-02
  26.460  0.362E-02  0.362E-02
  26.470  0.358E-02  0.358E-02
  26.480  0.355E-02  0.355E-02
  26.490  0.351E-02  0.351E-02
  26.500  0.347E-02  0.347E-02
  26.510  0.344E-02  0.344E-02
  26.520  0.340E-02  0.340E-02
  26.530  0.336E-02  0.336E-02
  26.540  0.333E-02  0.333E-02
  26.550  0.329E-02  0.329E-02
  26.560  0.326E-02  0.326E-02
  26.570  0.322E-02  0.322E-02
  26.580  0.319E-02  0.319E-02
  26.590  0.315E-02  0.315E-02
  26.600  0.312E-02  0.312E-02
  26.610  0.309E-02  0.309E-02
  26.620  0.305E-02  0.305E-02
  26.630  0.302E-02  0.302E-02
  26.640  0.299E-02  0.299E-02
  26.650  0.296E-02  0.296E-02
  26.660  0.293E-02  0.293E-02
  26.670  0.290E-02  0.290E-02
  26.680  0.287E-02  0.287E-02
  26.690  0.284E-02  0.284E-02
  26.700  0.281E-02  0.281E-02
  26.710  0.278E-02  0.278E-02
  26.720  0.276E-02  0.276E-02
  26.730  0.273E-02  0.273E-02
  26.740  0.270E-02  0.270E-02
  26.750  0.268E-02  0.268E-02
  26.760  0.265E-02  0.265E-02
  26.770  0.263E-02  0.263E-02
  26.780  0.260E-02  0.260E-02
  26.790  0.258E-02  0.258E-02
  26.800  0.255E-02  0.255E-02
  26.810  0.253E-02  0.253E-02
  26.820  0.251E-02  0.251E-02
  26.830  0.249E-02  0.249E-02
  26.840  0.247E-02  0.247E-02
  26.850  0.244E-02  0.244E-02
  26.860  0.242E-02  0.242E-02
  26.870  0.240E-02  0.240E-02
  26.880  0.238E-02  0.238E-02
  26.890  0.236E-02  0.236E-02
  26.900  0.235E-02  0.235E-02
  26.910  0.233E-02  0.233E-02
  26.920  0.231E-02  0.231E-02
  26.930  0.229E-02  0.229E-02
  26.940  0.227E-02  0.227E-02
  26.950  0.226E-02  0.226E-02
  26.960  0.224E-02  0.224E-02
  26.970  0.222E-02  0.222E-02
  26.980  0.221E-02  0.221E-02
  26.990  0.219E-02  0.219E-02
  27.000  0.218E-02  0.218E-02
  27.010  0.216E-02  0.216E-02
  27.020  0.215E-02  0.215E-02
  27.030  0.213E-02  0.213E-02
  27.040  0.212E-02  0.212E-02
  27.050  0.211E-02  0.211E-02
  27.060  0.209E-02  0.209E-02
  27.070  0.208E-02  0.208E-02
  27.080  0.207E-02  0.207E-02
  27.090  0.205E-02  0.205E-02
  27.100  0.204E-02  0.204E-02
  27.110  0.203E-02  0.203E-02
  27.120  0.202E-02  0.202E-02
  27.130  0.201E-02  0.201E-02
  27.140  0.199E-02  0.199E-02
  27.150  0.198E-02  0.198E-02
  27.160  0.197E-02  0.197E-02
  27.170  0.196E-02  0.196E-02
  27.180  0.195E-02  0.195E-02
  27.190  0.194E-02  0.194E-02
  27.200  0.193E-02  0.193E-02
  27.210  0.192E-02  0.192E-02
  27.220  0.191E-02  0.191E-02
  27.230  0.190E-02  0.190E-02
  27.240  0.189E-02  0.189E-02
  27.250  0.188E-02  0.188E-02
  27.260  0.187E-02  0.187E-02
  27.270  0.186E-02  0.186E-02
  27.280  0.185E-02  0.185E-02
  27.290  0.184E-02  0.184E-02
  27.300  0.183E-02  0.183E-02
  27.310  0.182E-02  0.182E-02
  27.320  0.181E-02  0.181E-02
  27.330  0.180E-02  0.180E-02
  27.340  0.179E-02  0.179E-02
  27.350  0.178E-02  0.178E-02
  27.360  0.177E-02  0.177E-02
  27.370  0.176E-02  0.176E-02
  27.380  0.175E-02  0.175E-02
  27.390  0.174E-02  0.174E-02
  27.400  0.173E-02  0.173E-02
  27.410  0.172E-02  0.172E-02
  27.420  0.171E-02  0.171E-02
  27.430  0.171E-02  0.171E-02
  27.440  0.170E-02  0.170E-02
  27.450  0.169E-02  0.169E-02
  27.460  0.168E-02  0.168E-02
  27.470  0.167E-02  0.167E-02
  27.480  0.166E-02  0.166E-02
  27.490  0.165E-02  0.165E-02
  27.500  0.164E-02  0.164E-02
  27.510  0.164E-02  0.164E-02
  27.520  0.163E-02  0.163E-02
  27.530  0.162E-02  0.162E-02
  27.540  0.161E-02  0.161E-02
  27.550  0.160E-02  0.160E-02
  27.560  0.160E-02  0.160E-02
  27.570  0.159E-02  0.159E-02
  27.580  0.158E-02  0.158E-02
  27.590  0.157E-02  0.157E-02
  27.600  0.156E-02  0.156E-02
  27.610  0.156E-02  0.156E-02
  27.620  0.155E-02  0.155E-02
  27.630  0.154E-02  0.154E-02
  27.640  0.153E-02  0.153E-02
  27.650  0.153E-02  0.153E-02
  27.660  0.152E-02  0.152E-02
  27.670  0.151E-02  0.151E-02
  27.680  0.151E-02  0.151E-02
  27.690  0.150E-02  0.150E-02
  27.700  0.149E-02  0.149E-02
  27.710  0.149E-02  0.149E-02
  27.720  0.148E-02  0.148E-02
  27.730  0.148E-02  0.148E-02
  27.740  0.147E-02  0.147E-02
  27.750  0.146E-02  0.146E-02
  27.760  0.146E-02  0.146E-02
  27.770  0.145E-02  0.145E-02
  27.780  0.145E-02  0.145E-02
  27.790  0.144E-02  0.144E-02
  27.800  0.144E-02  0.144E-02
  27.810  0.144E-02  0.144E-02
  27.820  0.143E-02  0.143E-02
  27.830  0.143E-02  0.143E-02
  27.840  0.142E-02  0.142E-02
  27.850  0.142E-02  0.142E-02
  27.860  0.142E-02  0.142E-02
  27.870  0.141E-02  0.141E-02
  27.880  0.141E-02  0.141E-02
  27.890  0.141E-02  0.141E-02
  27.900  0.140E-02  0.140E-02
  27.910  0.140E-02  0.140E-02
  27.920  0.140E-02  0.140E-02
  27.930  0.140E-02  0.140E-02
  27.940  0.140E-02  0.140E-02
  27.950  0.139E-02  0.139E-02
  27.960  0.139E-02  0.139E-02
  27.970  0.139E-02  0.139E-02
  27.980  0.139E-02  0.139E-02
  27.990  0.139E-02  0.139E-02
  28.000  0.139E-02  0.139E-02
  28.010  0.139E-02  0.139E-02
  28.020  0.139E-02  0.139E-02
  28.030  0.139E-02  0.139E-02
  28.040  0.139E-02  0.139E-02
  28.050  0.139E-02  0.139E-02
  28.060  0.139E-02  0.139E-02
  28.070  0.139E-02  0.139E-02
  28.080  0.139E-02  0.139E-02
  28.090  0.139E-02  0.139E-02
  28.100  0.139E-02  0.139E-02
  28.110  0.139E-02  0.139E-02
  28.120  0.140E-02  0.140E-02
  28.130  0.140E-02  0.140E-02
  28.140  0.140E-02  0.140E-02
  28.150  0.140E-02  0.140E-02
  28.160  0.140E-02  0.140E-02
  28.170  0.140E-02  0.140E-02
  28.180  0.141E-02  0.141E-02
  28.190  0.141E-02  0.141E-02
  28.200  0.141E-02  0.141E-02
  28.210  0.141E-02  0.141E-02
  28.220  0.141E-02  0.141E-02
  28.230  0.142E-02  0.142E-02
  28.240  0.142E-02  0.142E-02
  28.250  0.142E-02  0.142E-02
  28.260  0.142E-02  0.142E-02
  28.270  0.143E-02  0.143E-02
  28.280  0.143E-02  0.143E-02
  28.290  0.143E-02  0.143E-02
  28.300  0.143E-02  0.143E-02
  28.310  0.144E-02  0.144E-02
  28.320  0.144E-02  0.144E-02
  28.330  0.144E-02  0.144E-02
  28.340  0.144E-02  0.144E-02
  28.350  0.145E-02  0.145E-02
  28.360  0.145E-02  0.145E-02
  28.370  0.145E-02  0.145E-02
  28.380  0.145E-02  0.145E-02
  28.390  0.146E-02  0.146E-02
  28.400  0.146E-02  0.146E-02
  28.410  0.146E-02  0.146E-02
  28.420  0.146E-02  0.146E-02
  28.430  0.147E-02  0.147E-02
  28.440  0.147E-02  0.147E-02
  28.450  0.147E-02  0.147E-02
  28.460  0.147E-02  0.147E-02
  28.470  0.148E-02  0.148E-02
  28.480  0.148E-02  0.148E-02
  28.490  0.148E-02  0.148E-02
  28.500  0.148E-02  0.148E-02
  28.510  0.148E-02  0.148E-02
  28.520  0.149E-02  0.149E-02
  28.530  0.149E-02  0.149E-02
  28.540  0.149E-02  0.149E-02
  28.550  0.149E-02  0.149E-02
  28.560  0.149E-02  0.149E-02
  28.570  0.150E-02  0.150E-02
  28.580  0.150E-02  0.150E-02
  28.590  0.150E-02  0.150E-02
  28.600  0.150E-02  0.150E-02
  28.610  0.150E-02  0.150E-02
  28.620  0.150E-02  0.150E-02
  28.630  0.151E-02  0.151E-02
  28.640  0.151E-02  0.151E-02
  28.650  0.151E-02  0.151E-02
  28.660  0.151E-02  0.151E-02
  28.670  0.151E-02  0.151E-02
  28.680  0.151E-02  0.151E-02
  28.690  0.151E-02  0.151E-02
  28.700  0.151E-02  0.151E-02
  28.710  0.152E-02  0.152E-02
  28.720  0.152E-02  0.152E-02
  28.730  0.152E-02  0.152E-02
  28.740  0.152E-02  0.152E-02
  28.750  0.152E-02  0.152E-02
  28.760  0.152E-02  0.152E-02
  28.770  0.152E-02  0.152E-02
  28.780  0.152E-02  0.152E-02
  28.790  0.152E-02  0.152E-02
  28.800  0.153E-02  0.153E-02
  28.810  0.153E-02  0.153E-02
  28.820  0.153E-02  0.153E-02
  28.830  0.153E-02  0.153E-02
  28.840  0.153E-02  0.153E-02
  28.850  0.153E-02  0.153E-02
  28.860  0.153E-02  0.153E-02
  28.870  0.153E-02  0.153E-02
  28.880  0.153E-02  0.153E-02
  28.890  0.153E-02  0.153E-02
  28.900  0.154E-02  0.154E-02
  28.910  0.154E-02  0.154E-02
  28.920  0.154E-02  0.154E-02
  28.930  0.154E-02  0.154E-02
  28.940  0.154E-02  0.154E-02
  28.950  0.154E-02  0.154E-02
  28.960  0.154E-02  0.154E-02
  28.970  0.154E-02  0.154E-02
  28.980  0.154E-02  0.154E-02
  28.990  0.154E-02  0.154E-02
  29.000  0.155E-02  0.155E-02
  29.010  0.155E-02  0.155E-02
  29.020  0.155E-02  0.155E-02
  29.030  0.155E-02  0.155E-02
  29.040  0.155E-02  0.155E-02
  29.050  0.155E-02  0.155E-02
  29.060  0.155E-02  0.155E-02
  29.070  0.155E-02  0.155E-02
  29.080  0.155E-02  0.155E-02
  29.090  0.155E-02  0.155E-02
  29.100  0.156E-02  0.156E-02
  29.110  0.156E-02  0.156E-02
  29.120  0.156E-02  0.156E-02
  29.130  0.156E-02  0.156E-02
  29.140  0.156E-02  0.156E-02
  29.150  0.156E-02  0.156E-02
  29.160  0.156E-02  0.156E-02
  29.170  0.156E-02  0.156E-02
  29.180  0.156E-02  0.156E-02
  29.190  0.156E-02  0.156E-02
  29.200  0.156E-02  0.156E-02
  29.210  0.156E-02  0.156E-02
  29.220  0.156E-02  0.156E-02
  29.230  0.156E-02  0.156E-02
  29.240  0.156E-02  0.156E-02
  29.250  0.156E-02  0.156E-02
  29.260  0.156E-02  0.156E-02
  29.270  0.156E-02  0.156E-02
  29.280  0.156E-02  0.156E-02
  29.290  0.156E-02  0.156E-02
  29.300  0.156E-02  0.156E-02
  29.310  0.156E-02  0.156E-02
  29.320  0.156E-02  0.156E-02
  29.330  0.156E-02  0.156E-02
  29.340  0.156E-02  0.156E-02
  29.350  0.156E-02  0.156E-02
  29.360  0.156E-02  0.156E-02
  29.370  0.156E-02  0.156E-02
  29.380  0.156E-02  0.156E-02
  29.390  0.155E-02  0.155E-02
  29.400  0.155E-02  0.155E-02
  29.410  0.155E-02  0.155E-02
  29.420  0.155E-02  0.155E-02
  29.430  0.155E-02  0.155E-02
  29.440  0.155E-02  0.155E-02
  29.450  0.154E-02  0.154E-02
  29.460  0.154E-02  0.154E-02
  29.470  0.154E-02  0.154E-02
  29.480  0.153E-02  0.153E-02
  29.490  0.153E-02  0.153E-02
  29.500  0.153E-02  0.153E-02
  29.510  0.153E-02  0.153E-02
  29.520  0.152E-02  0.152E-02
  29.530  0.152E-02  0.152E-02
  29.540  0.151E-02  0.151E-02
  29.550  0.151E-02  0.151E-02
  29.560  0.151E-02  0.151E-02
  29.570  0.150E-02  0.150E-02
  29.580  0.150E-02  0.150E-02
  29.590  0.149E-02  0.149E-02
  29.600  0.149E-02  0.149E-02
  29.610  0.148E-02  0.148E-02
  29.620  0.148E-02  0.148E-02
  29.630  0.147E-02  0.147E-02
  29.640  0.147E-02  0.147E-02
  29.650  0.146E-02  0.146E-02
  29.660  0.146E-02  0.146E-02
  29.670  0.145E-02  0.145E-02
  29.680  0.145E-02  0.145E-02
  29.690  0.144E-02  0.144E-02
  29.700  0.144E-02  0.144E-02
  29.710  0.143E-02  0.143E-02
  29.720  0.142E-02  0.142E-02
  29.730  0.142E-02  0.142E-02
  29.740  0.141E-02  0.141E-02
  29.750  0.141E-02  0.141E-02
  29.760  0.140E-02  0.140E-02
  29.770  0.139E-02  0.139E-02
  29.780  0.139E-02  0.139E-02
  29.790  0.138E-02  0.138E-02
  29.800  0.137E-02  0.137E-02
  29.810  0.137E-02  0.137E-02
  29.820  0.136E-02  0.136E-02
  29.830  0.135E-02  0.135E-02
  29.840  0.135E-02  0.135E-02
  29.850  0.134E-02  0.134E-02
  29.860  0.133E-02  0.133E-02
  29.870  0.132E-02  0.132E-02
  29.880  0.132E-02  0.132E-02
  29.890  0.131E-02  0.131E-02
  29.900  0.130E-02  0.130E-02
  29.910  0.130E-02  0.130E-02
  29.920  0.129E-02  0.129E-02
  29.930  0.128E-02  0.128E-02
  29.940  0.128E-02  0.128E-02
  29.950  0.127E-02  0.127E-02
  29.960  0.126E-02  0.126E-02
  29.970  0.125E-02  0.125E-02
  29.980  0.125E-02  0.125E-02
  29.990  0.124E-02  0.124E-02
  30.000  0.123E-02  0.123E-02
  30.010  0.123E-02  0.123E-02
  30.020  0.122E-02  0.122E-02
  30.030  0.121E-02  0.121E-02
  30.040  0.121E-02  0.121E-02
  30.050  0.120E-02  0.120E-02
  30.060  0.119E-02  0.119E-02
  30.070  0.119E-02  0.119E-02
  30.080  0.118E-02  0.118E-02
  30.090  0.117E-02  0.117E-02
  30.100  0.117E-02  0.117E-02
  30.110  0.116E-02  0.116E-02
  30.120  0.115E-02  0.115E-02
  30.130  0.115E-02  0.115E-02
  30.140  0.114E-02  0.114E-02
  30.150  0.114E-02  0.114E-02
  30.160  0.113E-02  0.113E-02
  30.170  0.112E-02  0.112E-02
  30.180  0.112E-02  0.112E-02
  30.190  0.111E-02  0.111E-02
  30.200  0.111E-02  0.111E-02
  30.210  0.110E-02  0.110E-02
  30.220  0.109E-02  0.109E-02
  30.230  0.109E-02  0.109E-02
  30.240  0.108E-02  0.108E-02
  30.250  0.108E-02  0.108E-02
  30.260  0.107E-02  0.107E-02
  30.270  0.107E-02  0.107E-02
  30.280  0.106E-02  0.106E-02
  30.290  0.106E-02  0.106E-02
  30.300  0.105E-02  0.105E-02
  30.310  0.104E-02  0.104E-02
  30.320  0.104E-02  0.104E-02
  30.330  0.103E-02  0.103E-02
  30.340  0.103E-02  0.103E-02
  30.350  0.102E-02  0.102E-02
  30.360  0.102E-02  0.102E-02
  30.370  0.101E-02  0.101E-02
  30.380  0.101E-02  0.101E-02
  30.390  0.100E-02  0.100E-02
  30.400  0.998E-03  0.998E-03
  30.410  0.993E-03  0.993E-03
  30.420  0.988E-03  0.988E-03
  30.430  0.983E-03  0.983E-03
  30.440  0.978E-03  0.978E-03
  30.450  0.972E-03  0.972E-03
  30.460  0.967E-03  0.967E-03
  30.470  0.962E-03  0.962E-03
  30.480  0.957E-03  0.957E-03
  30.490  0.952E-03  0.952E-03
  30.500  0.947E-03  0.947E-03
  30.510  0.942E-03  0.942E-03
  30.520  0.937E-03  0.937E-03
  30.530  0.932E-03  0.932E-03
  30.540  0.926E-03  0.926E-03
  30.550  0.921E-03  0.921E-03
  30.560  0.916E-03  0.916E-03
  30.570  0.911E-03  0.911E-03
  30.580  0.906E-03  0.906E-03
  30.590  0.900E-03  0.900E-03
  30.600  0.895E-03  0.895E-03
  30.610  0.890E-03  0.890E-03
  30.620  0.885E-03  0.885E-03
  30.630  0.879E-03  0.879E-03
  30.640  0.874E-03  0.874E-03
  30.650  0.869E-03  0.869E-03
  30.660  0.863E-03  0.863E-03
  30.670  0.858E-03  0.858E-03
  30.680  0.852E-03  0.852E-03
  30.690  0.847E-03  0.847E-03
  30.700  0.842E-03  0.842E-03
  30.710  0.836E-03  0.836E-03
  30.720  0.831E-03  0.831E-03
  30.730  0.825E-03  0.825E-03
  30.740  0.820E-03  0.820E-03
  30.750  0.814E-03  0.814E-03
  30.760  0.809E-03  0.809E-03
  30.770  0.803E-03  0.803E-03
  30.780  0.797E-03  0.797E-03
  30.790  0.792E-03  0.792E-03
  30.800  0.786E-03  0.786E-03
  30.810  0.781E-03  0.781E-03
  30.820  0.775E-03  0.775E-03
  30.830  0.770E-03  0.770E-03
  30.840  0.764E-03  0.764E-03
  30.850  0.759E-03  0.759E-03
  30.860  0.753E-03  0.753E-03
  30.870  0.748E-03  0.748E-03
  30.880  0.742E-03  0.742E-03
  30.890  0.737E-03  0.737E-03
  30.900  0.731E-03  0.731E-03
  30.910  0.726E-03  0.726E-03
  30.920  0.720E-03  0.720E-03
  30.930  0.715E-03  0.715E-03
  30.940  0.710E-03  0.710E-03
  30.950  0.704E-03  0.704E-03
  30.960  0.699E-03  0.699E-03
  30.970  0.694E-03  0.694E-03
  30.980  0.688E-03  0.688E-03
  30.990  0.683E-03  0.683E-03
  31.000  0.678E-03  0.678E-03
  31.010  0.673E-03  0.673E-03
  31.020  0.668E-03  0.668E-03
  31.030  0.663E-03  0.663E-03
  31.040  0.658E-03  0.658E-03
  31.050  0.653E-03  0.653E-03
  31.060  0.648E-03  0.648E-03
  31.070  0.643E-03  0.643E-03
  31.080  0.638E-03  0.638E-03
  31.090  0.634E-03  0.634E-03
  31.100  0.629E-03  0.629E-03
  31.110  0.624E-03  0.624E-03
  31.120  0.620E-03  0.620E-03
  31.130  0.615E-03  0.615E-03
  31.140  0.611E-03  0.611E-03
  31.150  0.606E-03  0.606E-03
  31.160  0.602E-03  0.602E-03
  31.170  0.598E-03  0.598E-03
  31.180  0.594E-03  0.594E-03
  31.190  0.589E-03  0.589E-03
  31.200  0.585E-03  0.585E-03
  31.210  0.581E-03  0.581E-03
  31.220  0.577E-03  0.577E-03
  31.230  0.573E-03  0.573E-03
  31.240  0.569E-03  0.569E-03
  31.250  0.566E-03  0.566E-03
  31.260  0.562E-03  0.562E-03
  31.270  0.558E-03  0.558E-03
  31.280  0.554E-03  0.554E-03
  31.290  0.551E-03  0.551E-03
  31.300  0.547E-03  0.547E-03
  31.310  0.544E-03  0.544E-03
  31.320  0.540E-03  0.540E-03
  31.330  0.537E-03  0.537E-03
  31.340  0.534E-03  0.534E-03
  31.350  0.530E-03  0.530E-03
  31.360  0.527E-03  0.527E-03
  31.370  0.524E-03  0.524E-03
  31.380  0.521E-03  0.521E-03
  31.390  0.518E-03  0.518E-03
  31.400  0.515E-03  0.515E-03
  31.410  0.512E-03  0.512E-03
  31.420  0.509E-03  0.509E-03
  31.430  0.506E-03  0.506E-03
  31.440  0.503E-03  0.503E-03
  31.450  0.500E-03  0.500E-03
  31.460  0.497E-03  0.497E-03
  31.470  0.494E-03  0.494E-03
  31.480  0.492E-03  0.492E-03
  31.490  0.489E-03  0.489E-03
  31.500  0.486E-03  0.486E-03
  31.510  0.484E-03  0.484E-03
  31.520  0.481E-03  0.481E-03
  31.530  0.478E-03  0.478E-03
  31.540  0.476E-03  0.476E-03
  31.550  0.473E-03  0.473E-03
  31.560  0.471E-03  0.471E-03
  31.570  0.468E-03  0.468E-03
  31.580  0.466E-03  0.466E-03
  31.590  0.464E-03  0.464E-03
  31.600  0.461E-03  0.461E-03
  31.610  0.459E-03  0.459E-03
  31.620  0.457E-03  0.457E-03
  31.630  0.454E-03  0.454E-03
  31.640  0.452E-03  0.452E-03
  31.650  0.450E-03  0.450E-03
  31.660  0.448E-03  0.448E-03
  31.670  0.445E-03  0.445E-03
  31.680  0.443E-03  0.443E-03
  31.690  0.441E-03  0.441E-03
  31.700  0.439E-03  0.439E-03
  31.710  0.437E-03  0.437E-03
  31.720  0.435E-03  0.435E-03
  31.730  0.433E-03  0.433E-03
  31.740  0.431E-03  0.431E-03
  31.750  0.429E-03  0.429E-03
  31.760  0.427E-03  0.427E-03
  31.770  0.425E-03  0.425E-03
  31.780  0.423E-03  0.423E-03
  31.790  0.421E-03  0.421E-03
  31.800  0.419E-03  0.419E-03
  31.810  0.417E-03  0.417E-03
  31.820  0.415E-03  0.415E-03
  31.830  0.414E-03  0.414E-03
  31.840  0.412E-03  0.412E-03
  31.850  0.410E-03  0.410E-03
  31.860  0.408E-03  0.408E-03
  31.870  0.407E-03  0.407E-03
  31.880  0.405E-03  0.405E-03
  31.890  0.403E-03  0.403E-03
  31.900  0.402E-03  0.402E-03
  31.910  0.400E-03  0.400E-03
  31.920  0.398E-03  0.398E-03
  31.930  0.397E-03  0.397E-03
  31.940  0.395E-03  0.395E-03
  31.950  0.394E-03  0.394E-03
  31.960  0.392E-03  0.392E-03
  31.970  0.391E-03  0.391E-03
  31.980  0.389E-03  0.389E-03
  31.990  0.388E-03  0.388E-03
  32.000  0.387E-03  0.387E-03
  32.010  0.385E-03  0.385E-03
  32.020  0.384E-03  0.384E-03
  32.030  0.383E-03  0.383E-03
  32.040  0.382E-03  0.382E-03
  32.050  0.380E-03  0.380E-03
  32.060  0.379E-03  0.379E-03
  32.070  0.378E-03  0.378E-03
  32.080  0.377E-03  0.377E-03
  32.090  0.376E-03  0.376E-03
  32.100  0.374E-03  0.374E-03
  32.110  0.373E-03  0.373E-03
  32.120  0.372E-03  0.372E-03
  32.130  0.371E-03  0.371E-03
  32.140  0.370E-03  0.370E-03
  32.150  0.369E-03  0.369E-03
  32.160  0.368E-03  0.368E-03
  32.170  0.367E-03  0.367E-03
  32.180  0.366E-03  0.366E-03
  32.190  0.366E-03  0.366E-03
  32.200  0.365E-03  0.365E-03
  32.210  0.364E-03  0.364E-03
  32.220  0.363E-03  0.363E-03
  32.230  0.362E-03  0.362E-03
  32.240  0.361E-03  0.361E-03
  32.250  0.361E-03  0.361E-03
  32.260  0.360E-03  0.360E-03
  32.270  0.359E-03  0.359E-03
  32.280  0.358E-03  0.358E-03
  32.290  0.358E-03  0.358E-03
  32.300  0.357E-03  0.357E-03
  32.310  0.356E-03  0.356E-03
  32.320  0.355E-03  0.355E-03
  32.330  0.355E-03  0.355E-03
  32.340  0.354E-03  0.354E-03
  32.350  0.353E-03  0.353E-03
  32.360  0.353E-03  0.353E-03
  32.370  0.352E-03  0.352E-03
  32.380  0.351E-03  0.351E-03
  32.390  0.351E-03  0.351E-03
  32.400  0.350E-03  0.350E-03
  32.410  0.350E-03  0.350E-03
  32.420  0.349E-03  0.349E-03
  32.430  0.348E-03  0.348E-03
  32.440  0.348E-03  0.348E-03
  32.450  0.347E-03  0.347E-03
  32.460  0.346E-03  0.346E-03
  32.470  0.346E-03  0.346E-03
  32.480  0.345E-03  0.345E-03
  32.490  0.345E-03  0.345E-03
  32.500  0.344E-03  0.344E-03
  32.510  0.343E-03  0.343E-03
  32.520  0.343E-03  0.343E-03
  32.530  0.342E-03  0.342E-03
  32.540  0.341E-03  0.341E-03
  32.550  0.341E-03  0.341E-03
  32.560  0.340E-03  0.340E-03
  32.570  0.339E-03  0.339E-03
  32.580  0.339E-03  0.339E-03
  32.590  0.338E-03  0.338E-03
  32.600  0.337E-03  0.337E-03
  32.610  0.337E-03  0.337E-03
  32.620  0.336E-03  0.336E-03
  32.630  0.335E-03  0.335E-03
  32.640  0.334E-03  0.334E-03
  32.650  0.334E-03  0.334E-03
  32.660  0.333E-03  0.333E-03
  32.670  0.332E-03  0.332E-03
  32.680  0.331E-03  0.331E-03
  32.690  0.331E-03  0.331E-03
  32.700  0.330E-03  0.330E-03
  32.710  0.329E-03  0.329E-03
  32.720  0.328E-03  0.328E-03
  32.730  0.327E-03  0.327E-03
  32.740  0.326E-03  0.326E-03
  32.750  0.326E-03  0.326E-03
  32.760  0.325E-03  0.325E-03
  32.770  0.324E-03  0.324E-03
  32.780  0.323E-03  0.323E-03
  32.790  0.322E-03  0.322E-03
  32.800  0.321E-03  0.321E-03
  32.810  0.320E-03  0.320E-03
  32.820  0.319E-03  0.319E-03
  32.830  0.318E-03  0.318E-03
  32.840  0.317E-03  0.317E-03
  32.850  0.316E-03  0.316E-03
  32.860  0.315E-03  0.315E-03
  32.870  0.314E-03  0.314E-03
  32.880  0.313E-03  0.313E-03
  32.890  0.312E-03  0.312E-03
  32.900  0.311E-03  0.311E-03
  32.910  0.310E-03  0.310E-03
  32.920  0.309E-03  0.309E-03
  32.930  0.308E-03  0.308E-03
  32.940  0.307E-03  0.307E-03
  32.950  0.306E-03  0.306E-03
  32.960  0.305E-03  0.305E-03
  32.970  0.304E-03  0.304E-03
  32.980  0.303E-03  0.303E-03
  32.990  0.301E-03  0.301E-03
  33.000  0.300E-03  0.300E-03
  33.010  0.299E-03  0.299E-03
  33.020  0.298E-03  0.298E-03
  33.030  0.297E-03  0.297E-03
  33.040  0.296E-03  0.296E-03
  33.050  0.295E-03  0.295E-03
  33.060  0.293E-03  0.293E-03
  33.070  0.292E-03  0.292E-03
  33.080  0.291E-03  0.291E-03
  33.090  0.290E-03  0.290E-03
  33.100  0.289E-03  0.289E-03
  33.110  0.288E-03  0.288E-03
  33.120  0.286E-03  0.286E-03
  33.130  0.285E-03  0.285E-03
  33.140  0.284E-03  0.284E-03
  33.150  0.283E-03  0.283E-03
  33.160  0.282E-03  0.282E-03
  33.170  0.280E-03  0.280E-03
  33.180  0.279E-03  0.279E-03
  33.190  0.278E-03  0.278E-03
  33.200  0.277E-03  0.277E-03
  33.210  0.276E-03  0.276E-03
  33.220  0.274E-03  0.274E-03
  33.230  0.273E-03  0.273E-03
  33.240  0.272E-03  0.272E-03
  33.250  0.271E-03  0.271E-03
  33.260  0.270E-03  0.270E-03
  33.270  0.268E-03  0.268E-03
  33.280  0.267E-03  0.267E-03
  33.290  0.266E-03  0.266E-03
  33.300  0.265E-03  0.265E-03
  33.310  0.264E-03  0.264E-03
  33.320  0.263E-03  0.263E-03
  33.330  0.261E-03  0.261E-03
  33.340  0.260E-03  0.260E-03
  33.350  0.259E-03  0.259E-03
  33.360  0.258E-03  0.258E-03
  33.370  0.257E-03  0.257E-03
  33.380  0.255E-03  0.255E-03
  33.390  0.254E-03  0.254E-03
  33.400  0.253E-03  0.253E-03
  33.410  0.252E-03  0.252E-03
  33.420  0.251E-03  0.251E-03
  33.430  0.250E-03  0.250E-03
  33.440  0.249E-03  0.249E-03
  33.450  0.247E-03  0.247E-03
  33.460  0.246E-03  0.246E-03
  33.470  0.245E-03  0.245E-03
  33.480  0.244E-03  0.244E-03
  33.490  0.243E-03  0.243E-03
  33.500  0.242E-03  0.242E-03
  33.510  0.241E-03  0.241E-03
  33.520  0.240E-03  0.240E-03
  33.530  0.238E-03  0.238E-03
  33.540  0.237E-03  0.237E-03
  33.550  0.236E-03  0.236E-03
  33.560  0.235E-03  0.235E-03
  33.570  0.234E-03  0.234E-03
  33.580  0.233E-03  0.233E-03
  33.590  0.232E-03  0.232E-03
  33.600  0.231E-03  0.231E-03
  33.610  0.230E-03  0.230E-03
  33.620  0.229E-03  0.229E-03
  33.630  0.228E-03  0.228E-03
  33.640  0.227E-03  0.227E-03
  33.650  0.226E-03  0.226E-03
  33.660  0.225E-03  0.225E-03
  33.670  0.224E-03  0.224E-03
  33.680  0.223E-03  0.223E-03
  33.690  0.222E-03  0.222E-03
  33.700  0.221E-03  0.221E-03
  33.710  0.220E-03  0.220E-03
  33.720  0.219E-03  0.219E-03
  33.730  0.218E-03  0.218E-03
  33.740  0.217E-03  0.217E-03
  33.750  0.216E-03  0.216E-03
  33.760  0.215E-03  0.215E-03
  33.770  0.214E-03  0.214E-03
  33.780  0.213E-03  0.213E-03
  33.790  0.212E-03  0.212E-03
  33.800  0.211E-03  0.211E-03
  33.810  0.210E-03  0.210E-03
  33.820  0.209E-03  0.209E-03
  33.830  0.208E-03  0.208E-03
  33.840  0.207E-03  0.207E-03
  33.850  0.206E-03  0.206E-03
  33.860  0.206E-03  0.206E-03
  33.870  0.205E-03  0.205E-03
  33.880  0.204E-03  0.204E-03
  33.890  0.203E-03  0.203E-03
  33.900  0.202E-03  0.202E-03
  33.910  0.201E-03  0.201E-03
  33.920  0.200E-03  0.200E-03
  33.930  0.200E-03  0.200E-03
  33.940  0.199E-03  0.199E-03
  33.950  0.198E-03  0.198E-03
  33.960  0.197E-03  0.197E-03
  33.970  0.196E-03  0.196E-03
  33.980  0.195E-03  0.195E-03
  33.990  0.195E-03  0.195E-03
  34.000  0.194E-03  0.194E-03
  34.010  0.193E-03  0.193E-03
  34.020  0.192E-03  0.192E-03
  34.030  0.192E-03  0.192E-03
  34.040  0.191E-03  0.191E-03
  34.050  0.190E-03  0.190E-03
  34.060  0.189E-03  0.189E-03
  34.070  0.189E-03  0.189E-03
  34.080  0.188E-03  0.188E-03
  34.090  0.187E-03  0.187E-03
  34.100  0.187E-03  0.187E-03
  34.110  0.186E-03  0.186E-03
  34.120  0.185E-03  0.185E-03
  34.130  0.185E-03  0.185E-03
  34.140  0.184E-03  0.184E-03
  34.150  0.183E-03  0.183E-03
  34.160  0.183E-03  0.183E-03
  34.170  0.182E-03  0.182E-03
  34.180  0.181E-03  0.181E-03
  34.190  0.181E-03  0.181E-03
  34.200  0.180E-03  0.180E-03
  34.210  0.180E-03  0.180E-03
  34.220  0.179E-03  0.179E-03
  34.230  0.178E-03  0.178E-03
  34.240  0.178E-03  0.178E-03
  34.250  0.177E-03  0.177E-03
  34.260  0.177E-03  0.177E-03
  34.270  0.176E-03  0.176E-03
  34.280  0.176E-03  0.176E-03
  34.290  0.175E-03  0.175E-03
  34.300  0.175E-03  0.175E-03
  34.310  0.174E-03  0.174E-03
  34.320  0.174E-03  0.174E-03
  34.330  0.173E-03  0.173E-03
  34.340  0.173E-03  0.173E-03
  34.350  0.173E-03  0.173E-03
  34.360  0.172E-03  0.172E-03
  34.370  0.172E-03  0.172E-03
  34.380  0.171E-03  0.171E-03
  34.390  0.171E-03  0.171E-03
  34.400  0.171E-03  0.171E-03
  34.410  0.170E-03  0.170E-03
  34.420  0.170E-03  0.170E-03
  34.430  0.170E-03  0.170E-03
  34.440  0.169E-03  0.169E-03
  34.450  0.169E-03  0.169E-03
  34.460  0.168E-03  0.168E-03
  34.470  0.168E-03  0.168E-03
  34.480  0.168E-03  0.168E-03
  34.490  0.168E-03  0.168E-03
  34.500  0.167E-03  0.167E-03
  34.510  0.167E-03  0.167E-03
  34.520  0.167E-03  0.167E-03
  34.530  0.166E-03  0.166E-03
  34.540  0.166E-03  0.166E-03
  34.550  0.166E-03  0.166E-03
  34.560  0.165E-03  0.165E-03
  34.570  0.165E-03  0.165E-03
  34.580  0.165E-03  0.165E-03
  34.590  0.165E-03  0.165E-03
  34.600  0.164E-03  0.164E-03
  34.610  0.164E-03  0.164E-03
  34.620  0.164E-03  0.164E-03
  34.630  0.163E-03  0.163E-03
  34.640  0.163E-03  0.163E-03
  34.650  0.163E-03  0.163E-03
  34.660  0.162E-03  0.162E-03
  34.670  0.162E-03  0.162E-03
  34.680  0.162E-03  0.162E-03
  34.690  0.161E-03  0.161E-03
  34.700  0.161E-03  0.161E-03
  34.710  0.161E-03  0.161E-03
  34.720  0.160E-03  0.160E-03
  34.730  0.160E-03  0.160E-03
  34.740  0.159E-03  0.159E-03
  34.750  0.159E-03  0.159E-03
  34.760  0.159E-03  0.159E-03
  34.770  0.158E-03  0.158E-03
  34.780  0.158E-03  0.158E-03
  34.790  0.157E-03  0.157E-03
  34.800  0.157E-03  0.157E-03
  34.810  0.156E-03  0.156E-03
  34.820  0.156E-03  0.156E-03
  34.830  0.155E-03  0.155E-03
  34.840  0.155E-03  0.155E-03
  34.850  0.154E-03  0.154E-03
  34.860  0.154E-03  0.154E-03
  34.870  0.153E-03  0.153E-03
  34.880  0.152E-03  0.152E-03
  34.890  0.152E-03  0.152E-03
  34.900  0.151E-03  0.151E-03
  34.910  0.150E-03  0.150E-03
  34.920  0.150E-03  0.150E-03
  34.930  0.149E-03  0.149E-03
  34.940  0.148E-03  0.148E-03
  34.950  0.148E-03  0.148E-03
  34.960  0.147E-03  0.147E-03
  34.970  0.146E-03  0.146E-03
  34.980  0.145E-03  0.145E-03
  34.990  0.144E-03  0.144E-03
  35.000  0.143E-03  0.143E-03
  35.010  0.143E-03  0.143E-03
  35.020  0.142E-03  0.142E-03
  35.030  0.141E-03  0.141E-03
  35.040  0.140E-03  0.140E-03
  35.050  0.139E-03  0.139E-03
  35.060  0.138E-03  0.138E-03
  35.070  0.137E-03  0.137E-03
  35.080  0.136E-03  0.136E-03
  35.090  0.135E-03  0.135E-03
  35.100  0.134E-03  0.134E-03
  35.110  0.133E-03  0.133E-03
  35.120  0.132E-03  0.132E-03
  35.130  0.131E-03  0.131E-03
  35.140  0.130E-03  0.130E-03
  35.150  0.129E-03  0.129E-03
  35.160  0.128E-03  0.128E-03
  35.170  0.127E-03  0.127E-03
  35.180  0.125E-03  0.125E-03
  35.190  0.124E-03  0.124E-03
  35.200  0.123E-03  0.123E-03
  35.210  0.122E-03  0.122E-03
  35.220  0.121E-03  0.121E-03
  35.230  0.120E-03  0.120E-03
  35.240  0.119E-03  0.119E-03
  35.250  0.117E-03  0.117E-03
  35.260  0.116E-03  0.116E-03
  35.270  0.115E-03  0.115E-03
  35.280  0.114E-03  0.114E-03
  35.290  0.113E-03  0.113E-03
  35.300  0.111E-03  0.111E-03
  35.310  0.110E-03  0.110E-03
  35.320  0.109E-03  0.109E-03
  35.330  0.108E-03  0.108E-03
  35.340  0.107E-03  0.107E-03
  35.350  0.106E-03  0.106E-03
  35.360  0.104E-03  0.104E-03
  35.370  0.103E-03  0.103E-03
  35.380  0.102E-03  0.102E-03
  35.390  0.101E-03  0.101E-03
  35.400  0.997E-04  0.997E-04
  35.410  0.986E-04  0.986E-04
  35.420  0.975E-04  0.975E-04
  35.430  0.964E-04  0.964E-04
  35.440  0.953E-04  0.953E-04
  35.450  0.942E-04  0.942E-04
  35.460  0.931E-04  0.931E-04
  35.470  0.920E-04  0.920E-04
  35.480  0.910E-04  0.910E-04
  35.490  0.899E-04  0.899E-04
  35.500  0.889E-04  0.889E-04
  35.510  0.879E-04  0.879E-04
  35.520  0.869E-04  0.869E-04
  35.530  0.859E-04  0.859E-04
  35.540  0.849E-04  0.849E-04
  35.550  0.840E-04  0.840E-04
  35.560  0.830E-04  0.830E-04
  35.570  0.821E-04  0.821E-04
  35.580  0.812E-04  0.812E-04
  35.590  0.803E-04  0.803E-04
  35.600  0.795E-04  0.795E-04
  35.610  0.786E-04  0.786E-04
  35.620  0.778E-04  0.778E-04
  35.630  0.770E-04  0.770E-04
  35.640  0.762E-04  0.762E-04
  35.650  0.754E-04  0.754E-04
  35.660  0.747E-04  0.747E-04
  35.670  0.740E-04  0.740E-04
  35.680  0.732E-04  0.732E-04
  35.690  0.725E-04  0.725E-04
  35.700  0.719E-04  0.719E-04
  35.710  0.712E-04  0.712E-04
  35.720  0.706E-04  0.706E-04
  35.730  0.699E-04  0.699E-04
  35.740  0.693E-04  0.693E-04
  35.750  0.688E-04  0.688E-04
  35.760  0.682E-04  0.682E-04
  35.770  0.676E-04  0.676E-04
  35.780  0.671E-04  0.671E-04
  35.790  0.666E-04  0.666E-04
  35.800  0.661E-04  0.661E-04
  35.810  0.656E-04  0.656E-04
  35.820  0.651E-04  0.651E-04
  35.830  0.646E-04  0.646E-04
  35.840  0.642E-04  0.642E-04
  35.850  0.638E-04  0.638E-04
  35.860  0.633E-04  0.633E-04
  35.870  0.629E-04  0.629E-04
  35.880  0.625E-04  0.625E-04
  35.890  0.621E-04  0.621E-04
  35.900  0.618E-04  0.618E-04
  35.910  0.614E-04  0.614E-04
  35.920  0.611E-04  0.611E-04
  35.930  0.607E-04  0.607E-04
  35.940  0.604E-04  0.604E-04
  35.950  0.600E-04  0.600E-04
  35.960  0.597E-04  0.597E-04
  35.970  0.594E-04  0.594E-04
  35.980  0.591E-04  0.591E-04
  35.990  0.588E-04  0.588E-04
  36.000  0.585E-04  0.585E-04
  36.010  0.582E-04  0.582E-04
  36.020  0.579E-04  0.579E-04
  36.030  0.577E-04  0.577E-04
  36.040  0.574E-04  0.574E-04
  36.050  0.571E-04  0.571E-04
  36.060  0.569E-04  0.569E-04
  36.070  0.566E-04  0.566E-04
  36.080  0.563E-04  0.563E-04
  36.090  0.561E-04  0.561E-04
  36.100  0.558E-04  0.558E-04
  36.110  0.555E-04  0.555E-04
  36.120  0.553E-04  0.553E-04
  36.130  0.550E-04  0.550E-04
  36.140  0.547E-04  0.547E-04
  36.150  0.545E-04  0.545E-04
  36.160  0.542E-04  0.542E-04
  36.170  0.540E-04  0.540E-04
  36.180  0.537E-04  0.537E-04
  36.190  0.534E-04  0.534E-04
  36.200  0.532E-04  0.532E-04
  36.210  0.529E-04  0.529E-04
  36.220  0.526E-04  0.526E-04
  36.230  0.524E-04  0.524E-04
  36.240  0.521E-04  0.521E-04
  36.250  0.518E-04  0.518E-04
  36.260  0.515E-04  0.515E-04
  36.270  0.512E-04  0.512E-04
  36.280  0.510E-04  0.510E-04
  36.290  0.507E-04  0.507E-04
  36.300  0.504E-04  0.504E-04
  36.310  0.501E-04  0.501E-04
  36.320  0.498E-04  0.498E-04
  36.330  0.495E-04  0.495E-04
  36.340  0.492E-04  0.492E-04
  36.350  0.490E-04  0.490E-04
  36.360  0.487E-04  0.487E-04
  36.370  0.484E-04  0.484E-04
  36.380  0.481E-04  0.481E-04
  36.390  0.478E-04  0.478E-04
  36.400  0.475E-04  0.475E-04
  36.410  0.472E-04  0.472E-04
  36.420  0.469E-04  0.469E-04
  36.430  0.466E-04  0.466E-04
  36.440  0.463E-04  0.463E-04
  36.450  0.460E-04  0.460E-04
  36.460  0.457E-04  0.457E-04
  36.470  0.454E-04  0.454E-04
  36.480  0.451E-04  0.451E-04
  36.490  0.449E-04  0.449E-04
  36.500  0.446E-04  0.446E-04
  36.510  0.443E-04  0.443E-04
  36.520  0.440E-04  0.440E-04
  36.530  0.438E-04  0.438E-04
  36.540  0.435E-04  0.435E-04
  36.550  0.432E-04  0.432E-04
  36.560  0.430E-04  0.430E-04
  36.570  0.427E-04  0.427E-04
  36.580  0.425E-04  0.425E-04
  36.590  0.422E-04  0.422E-04
  36.600  0.420E-04  0.420E-04
  36.610  0.418E-04  0.418E-04
  36.620  0.415E-04  0.415E-04
  36.630  0.413E-04  0.413E-04
  36.640  0.411E-04  0.411E-04
  36.650  0.409E-04  0.409E-04
  36.660  0.407E-04  0.407E-04
  36.670  0.405E-04  0.405E-04
  36.680  0.403E-04  0.403E-04
  36.690  0.402E-04  0.402E-04
  36.700  0.400E-04  0.400E-04
  36.710  0.398E-04  0.398E-04
  36.720  0.397E-04  0.397E-04
  36.730  0.395E-04  0.395E-04
  36.740  0.394E-04  0.394E-04
  36.750  0.393E-04  0.393E-04
  36.760  0.392E-04  0.392E-04
  36.770  0.391E-04  0.391E-04
  36.780  0.390E-04  0.390E-04
  36.790  0.389E-04  0.389E-04
  36.800  0.388E-04  0.388E-04
  36.810  0.387E-04  0.387E-04
  36.820  0.386E-04  0.386E-04
  36.830  0.386E-04  0.386E-04
  36.840  0.385E-04  0.385E-04
  36.850  0.385E-04  0.385E-04
  36.860  0.385E-04  0.385E-04
  36.870  0.384E-04  0.384E-04
  36.880  0.384E-04  0.384E-04
  36.890  0.384E-04  0.384E-04
  36.900  0.384E-04  0.384E-04
  36.910  0.384E-04  0.384E-04
  36.920  0.384E-04  0.384E-04
  36.930  0.384E-04  0.384E-04
  36.940  0.384E-04  0.384E-04
  36.950  0.385E-04  0.385E-04
  36.960  0.385E-04  0.385E-04
  36.970  0.385E-04  0.385E-04
  36.980  0.386E-04  0.386E-04
  36.990  0.386E-04  0.386E-04
  37.000  0.387E-04  0.387E-04
  37.010  0.388E-04  0.388E-04
  37.020  0.388E-04  0.388E-04
  37.030  0.389E-04  0.389E-04
  37.040  0.389E-04  0.389E-04
  37.050  0.390E-04  0.390E-04
  37.060  0.391E-04  0.391E-04
  37.070  0.392E-04  0.392E-04
  37.080  0.392E-04  0.392E-04
  37.090  0.393E-04  0.393E-04
  37.100  0.394E-04  0.394E-04
  37.110  0.395E-04  0.395E-04
  37.120  0.395E-04  0.395E-04
  37.130  0.396E-04  0.396E-04
  37.140  0.397E-04  0.397E-04
  37.150  0.398E-04  0.398E-04
  37.160  0.399E-04  0.399E-04
  37.170  0.399E-04  0.399E-04
  37.180  0.400E-04  0.400E-04
  37.190  0.401E-04  0.401E-04
  37.200  0.401E-04  0.401E-04
  37.210  0.402E-04  0.402E-04
  37.220  0.402E-04  0.402E-04
  37.230  0.403E-04  0.403E-04
  37.240  0.403E-04  0.403E-04
  37.250  0.404E-04  0.404E-04
  37.260  0.404E-04  0.404E-04
  37.270  0.405E-04  0.405E-04
  37.280  0.405E-04  0.405E-04
  37.290  0.405E-04  0.405E-04
  37.300  0.405E-04  0.405E-04
  37.310  0.405E-04  0.405E-04
  37.320  0.405E-04  0.405E-04
  37.330  0.405E-04  0.405E-04
  37.340  0.405E-04  0.405E-04
  37.350  0.405E-04  0.405E-04
  37.360  0.405E-04  0.405E-04
  37.370  0.405E-04  0.405E-04
  37.380  0.404E-04  0.404E-04
  37.390  0.404E-04  0.404E-04
  37.400  0.403E-04  0.403E-04
  37.410  0.403E-04  0.403E-04
  37.420  0.402E-04  0.402E-04
  37.430  0.401E-04  0.401E-04
  37.440  0.401E-04  0.401E-04
  37.450  0.400E-04  0.400E-04
  37.460  0.399E-04  0.399E-04
  37.470  0.398E-04  0.398E-04
  37.480  0.397E-04  0.397E-04
  37.490  0.396E-04  0.396E-04
  37.500  0.394E-04  0.394E-04
  37.510  0.393E-04  0.393E-04
  37.520  0.392E-04  0.392E-04
  37.530  0.390E-04  0.390E-04
  37.540  0.389E-04  0.389E-04
  37.550  0.387E-04  0.387E-04
  37.560  0.386E-04  0.386E-04
  37.570  0.384E-04  0.384E-04
  37.580  0.382E-04  0.382E-04
  37.590  0.381E-04  0.381E-04
  37.600  0.379E-04  0.379E-04
  37.610  0.377E-04  0.377E-04
  37.620  0.375E-04  0.375E-04
  37.630  0.373E-04  0.373E-04
  37.640  0.371E-04  0.371E-04
  37.650  0.369E-04  0.369E-04
  37.660  0.367E-04  0.367E-04
  37.670  0.365E-04  0.365E-04
  37.680  0.363E-04  0.363E-04
  37.690  0.361E-04  0.361E-04
  37.700  0.359E-04  0.359E-04
  37.710  0.357E-04  0.357E-04
  37.720  0.354E-04  0.354E-04
  37.730  0.352E-04  0.352E-04
  37.740  0.350E-04  0.350E-04
  37.750  0.348E-04  0.348E-04
  37.760  0.346E-04  0.346E-04
  37.770  0.344E-04  0.344E-04
  37.780  0.341E-04  0.341E-04
  37.790  0.339E-04  0.339E-04
  37.800  0.337E-04  0.337E-04
  37.810  0.335E-04  0.335E-04
  37.820  0.333E-04  0.333E-04
  37.830  0.331E-04  0.331E-04
  37.840  0.329E-04  0.329E-04
  37.850  0.327E-04  0.327E-04
  37.860  0.325E-04  0.325E-04
  37.870  0.323E-04  0.323E-04
  37.880  0.321E-04  0.321E-04
  37.890  0.319E-04  0.319E-04
  37.900  0.318E-04  0.318E-04
  37.910  0.316E-04  0.316E-04
  37.920  0.314E-04  0.314E-04
  37.930  0.313E-04  0.313E-04
  37.940  0.311E-04  0.311E-04
  37.950  0.310E-04  0.310E-04
  37.960  0.308E-04  0.308E-04
  37.970  0.307E-04  0.307E-04
  37.980  0.305E-04  0.305E-04
  37.990  0.304E-04  0.304E-04
  38.000  0.303E-04  0.303E-04
  38.010  0.302E-04  0.302E-04
  38.020  0.301E-04  0.301E-04
  38.030  0.300E-04  0.300E-04
  38.040  0.299E-04  0.299E-04
  38.050  0.298E-04  0.298E-04
  38.060  0.297E-04  0.297E-04
  38.070  0.297E-04  0.297E-04
  38.080  0.296E-04  0.296E-04
  38.090  0.295E-04  0.295E-04
  38.100  0.295E-04  0.295E-04
  38.110  0.294E-04  0.294E-04
  38.120  0.294E-04  0.294E-04
  38.130  0.294E-04  0.294E-04
  38.140  0.293E-04  0.293E-04
  38.150  0.293E-04  0.293E-04
  38.160  0.293E-04  0.293E-04
  38.170  0.293E-04  0.293E-04
  38.180  0.293E-04  0.293E-04
  38.190  0.293E-04  0.293E-04
  38.200  0.293E-04  0.293E-04
  38.210  0.294E-04  0.294E-04
  38.220  0.294E-04  0.294E-04
  38.230  0.294E-04  0.294E-04
  38.240  0.295E-04  0.295E-04
  38.250  0.295E-04  0.295E-04
  38.260  0.295E-04  0.295E-04
  38.270  0.296E-04  0.296E-04
  38.280  0.297E-04  0.297E-04
  38.290  0.297E-04  0.297E-04
  38.300  0.298E-04  0.298E-04
  38.310  0.298E-04  0.298E-04
  38.320  0.299E-04  0.299E-04
  38.330  0.300E-04  0.300E-04
  38.340  0.301E-04  0.301E-04
  38.350  0.301E-04  0.301E-04
  38.360  0.302E-04  0.302E-04
  38.370  0.303E-04  0.303E-04
  38.380  0.304E-04  0.304E-04
  38.390  0.305E-04  0.305E-04
  38.400  0.306E-04  0.306E-04
  38.410  0.307E-04  0.307E-04
  38.420  0.307E-04  0.307E-04
  38.430  0.308E-04  0.308E-04
  38.440  0.309E-04  0.309E-04
  38.450  0.310E-04  0.310E-04
  38.460  0.311E-04  0.311E-04
  38.470  0.312E-04  0.312E-04
  38.480  0.313E-04  0.313E-04
  38.490  0.314E-04  0.314E-04
  38.500  0.314E-04  0.314E-04
  38.510  0.315E-04  0.315E-04
  38.520  0.316E-04  0.316E-04
  38.530  0.317E-04  0.317E-04
  38.540  0.317E-04  0.317E-04
  38.550  0.318E-04  0.318E-04
  38.560  0.319E-04  0.319E-04
  38.570  0.319E-04  0.319E-04
  38.580  0.320E-04  0.320E-04
  38.590  0.321E-04  0.321E-04
  38.600  0.321E-04  0.321E-04
  38.610  0.322E-04  0.322E-04
  38.620  0.322E-04  0.322E-04
  38.630  0.322E-04  0.322E-04
  38.640  0.323E-04  0.323E-04
  38.650  0.323E-04  0.323E-04
  38.660  0.323E-04  0.323E-04
  38.670  0.323E-04  0.323E-04
  38.680  0.323E-04  0.323E-04
  38.690  0.323E-04  0.323E-04
  38.700  0.323E-04  0.323E-04
  38.710  0.323E-04  0.323E-04
  38.720  0.323E-04  0.323E-04
  38.730  0.323E-04  0.323E-04
  38.740  0.323E-04  0.323E-04
  38.750  0.323E-04  0.323E-04
  38.760  0.322E-04  0.322E-04
  38.770  0.322E-04  0.322E-04
  38.780  0.321E-04  0.321E-04
  38.790  0.321E-04  0.321E-04
  38.800  0.320E-04  0.320E-04
  38.810  0.319E-04  0.319E-04
  38.820  0.319E-04  0.319E-04
  38.830  0.318E-04  0.318E-04
  38.840  0.317E-04  0.317E-04
  38.850  0.316E-04  0.316E-04
  38.860  0.315E-04  0.315E-04
  38.870  0.314E-04  0.314E-04
  38.880  0.313E-04  0.313E-04
  38.890  0.312E-04  0.312E-04
  38.900  0.311E-04  0.311E-04
  38.910  0.309E-04  0.309E-04
  38.920  0.308E-04  0.308E-04
  38.930  0.307E-04  0.307E-04
  38.940  0.305E-04  0.305E-04
  38.950  0.304E-04  0.304E-04
  38.960  0.302E-04  0.302E-04
  38.970  0.301E-04  0.301E-04
  38.980  0.299E-04  0.299E-04
  38.990  0.298E-04  0.298E-04
  39.000  0.296E-04  0.296E-04
  39.010  0.294E-04  0.294E-04
  39.020  0.293E-04  0.293E-04
  39.030  0.291E-04  0.291E-04
  39.040  0.289E-04  0.289E-04
  39.050  0.287E-04  0.287E-04
  39.060  0.285E-04  0.285E-04
  39.070  0.284E-04  0.284E-04
  39.080  0.282E-04  0.282E-04
  39.090  0.280E-04  0.280E-04
  39.100  0.278E-04  0.278E-04
  39.110  0.276E-04  0.276E-04
  39.120  0.274E-04  0.274E-04
  39.130  0.272E-04  0.272E-04
  39.140  0.270E-04  0.270E-04
  39.150  0.269E-04  0.269E-04
  39.160  0.267E-04  0.267E-04
  39.170  0.265E-04  0.265E-04
  39.180  0.263E-04  0.263E-04
  39.190  0.261E-04  0.261E-04
  39.200  0.259E-04  0.259E-04
  39.210  0.258E-04  0.258E-04
  39.220  0.256E-04  0.256E-04
  39.230  0.254E-04  0.254E-04
  39.240  0.252E-04  0.252E-04
  39.250  0.251E-04  0.251E-04
  39.260  0.249E-04  0.249E-04
  39.270  0.247E-04  0.247E-04
  39.280  0.246E-04  0.246E-04
  39.290  0.244E-04  0.244E-04
  39.300  0.243E-04  0.243E-04
  39.310  0.241E-04  0.241E-04
  39.320  0.240E-04  0.240E-04
  39.330  0.238E-04  0.238E-04
  39.340  0.237E-04  0.237E-04
  39.350  0.236E-04  0.236E-04
  39.360  0.234E-04  0.234E-04
  39.370  0.233E-04  0.233E-04
  39.380  0.232E-04  0.232E-04
  39.390  0.231E-04  0.231E-04
  39.400  0.230E-04  0.230E-04
  39.410  0.229E-04  0.229E-04
  39.420  0.228E-04  0.228E-04
  39.430  0.227E-04  0.227E-04
  39.440  0.226E-04  0.226E-04
  39.450  0.226E-04  0.226E-04
  39.460  0.225E-04  0.225E-04
  39.470  0.224E-04  0.224E-04
  39.480  0.224E-04  0.224E-04
  39.490  0.223E-04  0.223E-04
  39.500  0.223E-04  0.223E-04
  39.510  0.222E-04  0.222E-04
  39.520  0.222E-04  0.222E-04
  39.530  0.222E-04  0.222E-04
  39.540  0.221E-04  0.221E-04
  39.550  0.221E-04  0.221E-04
  39.560  0.221E-04  0.221E-04
  39.570  0.221E-04  0.221E-04
  39.580  0.221E-04  0.221E-04
  39.590  0.221E-04  0.221E-04
  39.600  0.221E-04  0.221E-04
  39.610  0.221E-04  0.221E-04
  39.620  0.221E-04  0.221E-04
  39.630  0.222E-04  0.222E-04
  39.640  0.222E-04  0.222E-04
  39.650  0.222E-04  0.222E-04
  39.660  0.223E-04  0.223E-04
  39.670  0.223E-04  0.223E-04
  39.680  0.223E-04  0.223E-04
  39.690  0.224E-04  0.224E-04
  39.700  0.224E-04  0.224E-04
  39.710  0.225E-04  0.225E-04
  39.720  0.225E-04  0.225E-04
  39.730  0.226E-04  0.226E-04
  39.740  0.227E-04  0.227E-04
  39.750  0.227E-04  0.227E-04
  39.760  0.228E-04  0.228E-04
  39.770  0.228E-04  0.228E-04
  39.780  0.229E-04  0.229E-04
  39.790  0.230E-04  0.230E-04
  39.800  0.230E-04  0.230E-04
  39.810  0.231E-04  0.231E-04
  39.820  0.232E-04  0.232E-04
  39.830  0.233E-04  0.233E-04
  39.840  0.233E-04  0.233E-04
  39.850  0.234E-04  0.234E-04
  39.860  0.235E-04  0.235E-04
  39.870  0.235E-04  0.235E-04
  39.880  0.236E-04  0.236E-04
  39.890  0.237E-04  0.237E-04
  39.900  0.237E-04  0.237E-04
  39.910  0.238E-04  0.238E-04
  39.920  0.239E-04  0.239E-04
  39.930  0.239E-04  0.239E-04
  39.940  0.240E-04  0.240E-04
  39.950  0.240E-04  0.240E-04
  39.960  0.241E-04  0.241E-04
  39.970  0.242E-04  0.242E-04
  39.980  0.242E-04  0.242E-04
  39.990  0.242E-04  0.242E-04
  40.000  0.243E-04  0.243E-04
  40.010  0.243E-04  0.243E-04
  40.020  0.244E-04  0.244E-04
  40.030  0.244E-04  0.244E-04
  40.040  0.244E-04  0.244E-04
  40.050  0.244E-04  0.244E-04
  40.060  0.245E-04  0.245E-04
  40.070  0.245E-04  0.245E-04
  40.080  0.245E-04  0.245E-04
  40.090  0.245E-04  0.245E-04
  40.100  0.245E-04  0.245E-04
  40.110  0.245E-04  0.245E-04
  40.120  0.245E-04  0.245E-04
  40.130  0.245E-04  0.245E-04
  40.140  0.244E-04  0.244E-04
  40.150  0.244E-04  0.244E-04
  40.160  0.244E-04  0.244E-04
  40.170  0.244E-04  0.244E-04
  40.180  0.243E-04  0.243E-04
  40.190  0.243E-04  0.243E-04
  40.200  0.242E-04  0.242E-04
  40.210  0.242E-04  0.242E-04
  40.220  0.241E-04  0.241E-04
  40.230  0.241E-04  0.241E-04
  40.240  0.240E-04  0.240E-04
  40.250  0.239E-04  0.239E-04
  40.260  0.238E-04  0.238E-04
  40.270  0.238E-04  0.238E-04
  40.280  0.237E-04  0.237E-04
  40.290  0.236E-04  0.236E-04
  40.300  0.235E-04  0.235E-04
  40.310  0.234E-04  0.234E-04
  40.320  0.233E-04  0.233E-04
  40.330  0.232E-04  0.232E-04
  40.340  0.231E-04  0.231E-04
  40.350  0.230E-04  0.230E-04
  40.360  0.228E-04  0.228E-04
  40.370  0.227E-04  0.227E-04
  40.380  0.226E-04  0.226E-04
  40.390  0.224E-04  0.224E-04
  40.400  0.223E-04  0.223E-04
  40.410  0.222E-04  0.222E-04
  40.420  0.220E-04  0.220E-04
  40.430  0.219E-04  0.219E-04
  40.440  0.218E-04  0.218E-04
  40.450  0.216E-04  0.216E-04
  40.460  0.215E-04  0.215E-04
  40.470  0.213E-04  0.213E-04
  40.480  0.212E-04  0.212E-04
  40.490  0.210E-04  0.210E-04
  40.500  0.208E-04  0.208E-04
  40.510  0.207E-04  0.207E-04
  40.520  0.205E-04  0.205E-04
  40.530  0.204E-04  0.204E-04
  40.540  0.202E-04  0.202E-04
  40.550  0.200E-04  0.200E-04
  40.560  0.199E-04  0.199E-04
  40.570  0.197E-04  0.197E-04
  40.580  0.196E-04  0.196E-04
  40.590  0.194E-04  0.194E-04
  40.600  0.192E-04  0.192E-04
  40.610  0.191E-04  0.191E-04
  40.620  0.189E-04  0.189E-04
  40.630  0.188E-04  0.188E-04
  40.640  0.186E-04  0.186E-04
  40.650  0.184E-04  0.184E-04
  40.660  0.183E-04  0.183E-04
  40.670  0.181E-04  0.181E-04
  40.680  0.180E-04  0.180E-04
  40.690  0.178E-04  0.178E-04
  40.700  0.177E-04  0.177E-04
  40.710  0.175E-04  0.175E-04
  40.720  0.174E-04  0.174E-04
  40.730  0.173E-04  0.173E-04
  40.740  0.171E-04  0.171E-04
  40.750  0.170E-04  0.170E-04
  40.760  0.169E-04  0.169E-04
  40.770  0.167E-04  0.167E-04
  40.780  0.166E-04  0.166E-04
  40.790  0.165E-04  0.165E-04
  40.800  0.163E-04  0.163E-04
  40.810  0.162E-04  0.162E-04
  40.820  0.161E-04  0.161E-04
  40.830  0.160E-04  0.160E-04
  40.840  0.159E-04  0.159E-04
  40.850  0.158E-04  0.158E-04
  40.860  0.157E-04  0.157E-04
  40.870  0.156E-04  0.156E-04
  40.880  0.155E-04  0.155E-04
  40.890  0.154E-04  0.154E-04
  40.900  0.153E-04  0.153E-04
  40.910  0.152E-04  0.152E-04
  40.920  0.151E-04  0.151E-04
  40.930  0.150E-04  0.150E-04
  40.940  0.149E-04  0.149E-04
  40.950  0.149E-04  0.149E-04
  40.960  0.148E-04  0.148E-04
  40.970  0.147E-04  0.147E-04
  40.980  0.147E-04  0.147E-04
  40.990  0.146E-04  0.146E-04
  41.000  0.145E-04  0.145E-04
  41.010  0.145E-04  0.145E-04
  41.020  0.144E-04  0.144E-04
  41.030  0.143E-04  0.143E-04
  41.040  0.143E-04  0.143E-04
  41.050  0.142E-04  0.142E-04
  41.060  0.142E-04  0.142E-04
  41.070  0.141E-04  0.141E-04
  41.080  0.141E-04  0.141E-04
  41.090  0.140E-04  0.140E-04
  41.100  0.140E-04  0.140E-04
  41.110  0.139E-04  0.139E-04
  41.120  0.139E-04  0.139E-04
  41.130  0.138E-04  0.138E-04
  41.140  0.138E-04  0.138E-04
  41.150  0.138E-04  0.138E-04
  41.160  0.137E-04  0.137E-04
  41.170  0.137E-04  0.137E-04
  41.180  0.136E-04  0.136E-04
  41.190  0.136E-04  0.136E-04
  41.200  0.135E-04  0.135E-04
  41.210  0.135E-04  0.135E-04
  41.220  0.134E-04  0.134E-04
  41.230  0.134E-04  0.134E-04
  41.240  0.134E-04  0.134E-04
  41.250  0.133E-04  0.133E-04
  41.260  0.133E-04  0.133E-04
  41.270  0.132E-04  0.132E-04
  41.280  0.132E-04  0.132E-04
  41.290  0.131E-04  0.131E-04
  41.300  0.131E-04  0.131E-04
  41.310  0.130E-04  0.130E-04
  41.320  0.129E-04  0.129E-04
  41.330  0.129E-04  0.129E-04
  41.340  0.128E-04  0.128E-04
  41.350  0.128E-04  0.128E-04
  41.360  0.127E-04  0.127E-04
  41.370  0.126E-04  0.126E-04
  41.380  0.126E-04  0.126E-04
  41.390  0.125E-04  0.125E-04
  41.400  0.124E-04  0.124E-04
  41.410  0.123E-04  0.123E-04
  41.420  0.122E-04  0.122E-04
  41.430  0.122E-04  0.122E-04
  41.440  0.121E-04  0.121E-04
  41.450  0.120E-04  0.120E-04
  41.460  0.119E-04  0.119E-04
  41.470  0.118E-04  0.118E-04
  41.480  0.117E-04  0.117E-04
  41.490  0.116E-04  0.116E-04
  41.500  0.115E-04  0.115E-04
  41.510  0.114E-04  0.114E-04
  41.520  0.112E-04  0.112E-04
  41.530  0.111E-04  0.111E-04
  41.540  0.110E-04  0.110E-04
  41.550  0.109E-04  0.109E-04
  41.560  0.108E-04  0.108E-04
  41.570  0.106E-04  0.106E-04
  41.580  0.105E-04  0.105E-04
  41.590  0.104E-04  0.104E-04
  41.600  0.102E-04  0.102E-04
  41.610  0.101E-04  0.101E-04
  41.620  0.994E-05  0.994E-05
  41.630  0.980E-05  0.980E-05
  41.640  0.965E-05  0.965E-05
  41.650  0.950E-05  0.950E-05
  41.660  0.934E-05  0.934E-05
  41.670  0.918E-05  0.918E-05
  41.680  0.902E-05  0.902E-05
  41.690  0.886E-05  0.886E-05
  41.700  0.870E-05  0.870E-05
  41.710  0.853E-05  0.853E-05
  41.720  0.837E-05  0.837E-05
  41.730  0.820E-05  0.820E-05
  41.740  0.802E-05  0.802E-05
  41.750  0.785E-05  0.785E-05
  41.760  0.768E-05  0.768E-05
  41.770  0.750E-05  0.750E-05
  41.780  0.732E-05  0.732E-05
  41.790  0.714E-05  0.714E-05
  41.800  0.696E-05  0.696E-05
  41.810  0.678E-05  0.678E-05
  41.820  0.660E-05  0.660E-05
  41.830  0.642E-05  0.642E-05
  41.840  0.624E-05  0.624E-05
  41.850  0.606E-05  0.606E-05
  41.860  0.588E-05  0.588E-05
  41.870  0.569E-05  0.569E-05
  41.880  0.551E-05  0.551E-05
  41.890  0.533E-05  0.533E-05
  41.900  0.515E-05  0.515E-05
  41.910  0.497E-05  0.497E-05
  41.920  0.479E-05  0.479E-05
  41.930  0.461E-05  0.461E-05
  41.940  0.443E-05  0.443E-05
  41.950  0.425E-05  0.425E-05
  41.960  0.408E-05  0.408E-05
  41.970  0.390E-05  0.390E-05
  41.980  0.373E-05  0.373E-05
  41.990  0.356E-05  0.356E-05
  42.000  0.339E-05  0.339E-05
  42.010  0.322E-05  0.322E-05
  42.020  0.305E-05  0.305E-05
  42.030  0.289E-05  0.289E-05
  42.040  0.273E-05  0.273E-05
  42.050  0.257E-05  0.257E-05
  42.060  0.241E-05  0.241E-05
  42.070  0.226E-05  0.226E-05
  42.080  0.211E-05  0.211E-05
  42.090  0.196E-05  0.196E-05
  42.100  0.181E-05  0.181E-05
  42.110  0.167E-05  0.167E-05
  42.120  0.153E-05  0.153E-05
  42.130  0.139E-05  0.139E-05
  42.140  0.126E-05  0.126E-05
  42.150  0.113E-05  0.113E-05
  42.160  0.998E-06  0.998E-06
  42.170  0.873E-06  0.873E-06
  42.180  0.752E-06  0.752E-06
  42.190  0.634E-06  0.634E-06
  42.200  0.519E-06  0.519E-06
  42.210  0.408E-06  0.408E-06
  42.220  0.300E-06  0.300E-06
  42.230  0.196E-06  0.196E-06
  42.240  0.948E-07  0.948E-07
  42.250 -0.261E-08 -0.261E-08
  42.260 -0.965E-07 -0.965E-07
  42.270 -0.187E-06 -0.187E-06
  42.280 -0.274E-06 -0.274E-06
  42.290 -0.357E-06 -0.357E-06
  42.300 -0.437E-06 -0.437E-06
  42.310 -0.514E-06 -0.514E-06
  42.320 -0.587E-06 -0.587E-06
  42.330 -0.656E-06 -0.656E-06
  42.340 -0.723E-06 -0.723E-06
  42.350 -0.785E-06 -0.785E-06
  42.360 -0.845E-06 -0.845E-06
  42.370 -0.901E-06 -0.901E-06
  42.380 -0.954E-06 -0.954E-06
  42.390 -0.100E-05 -0.100E-05
  42.400 -0.105E-05 -0.105E-05
  42.410 -0.109E-05 -0.109E-05
  42.420 -0.114E-05 -0.114E-05
  42.430 -0.117E-05 -0.117E-05
  42.440 -0.121E-05 -0.121E-05
  42.450 -0.124E-05 -0.124E-05
  42.460 -0.127E-05 -0.127E-05
  42.470 -0.129E-05 -0.129E-05
  42.480 -0.132E-05 -0.132E-05
  42.490 -0.134E-05 -0.134E-05
  42.500 -0.136E-05 -0.136E-05
  42.510 -0.137E-05 -0.137E-05
  42.520 -0.139E-05 -0.139E-05
  42.530 -0.140E-05 -0.140E-05
  42.540 -0.141E-05 -0.141E-05
  42.550 -0.142E-05 -0.142E-05
  42.560 -0.142E-05 -0.142E-05
  42.570 -0.142E-05 -0.142E-05
  42.580 -0.142E-05 -0.142E-05
  42.590 -0.142E-05 -0.142E-05
  42.600 -0.142E-05 -0.142E-05
  42.610 -0.142E-05 -0.142E-05
  42.620 -0.141E-05 -0.141E-05
  42.630 -0.140E-05 -0.140E-05
  42.640 -0.140E-05 -0.140E-05
  42.650 -0.139E-05 -0.139E-05
  42.660 -0.137E-05 -0.137E-05
  42.670 -0.136E-05 -0.136E-05
  42.680 -0.135E-05 -0.135E-05
  42.690 -0.133E-05 -0.133E-05
  42.700 -0.132E-05 -0.132E-05
  42.710 -0.130E-05 -0.130E-05
  42.720 -0.128E-05 -0.128E-05
  42.730 -0.126E-05 -0.126E-05
  42.740 -0.124E-05 -0.124E-05
  42.750 -0.123E-05 -0.123E-05
  42.760 -0.120E-05 -0.120E-05
  42.770 -0.118E-05 -0.118E-05
  42.780 -0.116E-05 -0.116E-05
  42.790 -0.114E-05 -0.114E-05
  42.800 -0.112E-05 -0.112E-05
  42.810 -0.109E-05 -0.109E-05
  42.820 -0.107E-05 -0.107E-05
  42.830 -0.105E-05 -0.105E-05
  42.840 -0.103E-05 -0.103E-05
  42.850 -0.100E-05 -0.100E-05
  42.860 -0.978E-06 -0.978E-06
  42.870 -0.954E-06 -0.954E-06
  42.880 -0.930E-06 -0.930E-06
  42.890 -0.907E-06 -0.907E-06
  42.900 -0.883E-06 -0.883E-06
  42.910 -0.859E-06 -0.859E-06
  42.920 -0.836E-06 -0.836E-06
  42.930 -0.813E-06 -0.813E-06
  42.940 -0.789E-06 -0.789E-06
  42.950 -0.767E-06 -0.767E-06
  42.960 -0.744E-06 -0.744E-06
  42.970 -0.721E-06 -0.721E-06
  42.980 -0.699E-06 -0.699E-06
  42.990 -0.677E-06 -0.677E-06
  43.000 -0.656E-06 -0.656E-06
  43.010 -0.635E-06 -0.635E-06
  43.020 -0.614E-06 -0.614E-06
  43.030 -0.593E-06 -0.593E-06
  43.040 -0.573E-06 -0.573E-06
  43.050 -0.553E-06 -0.553E-06
  43.060 -0.534E-06 -0.534E-06
  43.070 -0.515E-06 -0.515E-06
  43.080 -0.496E-06 -0.496E-06
  43.090 -0.478E-06 -0.478E-06
  43.100 -0.461E-06 -0.461E-06
  43.110 -0.443E-06 -0.443E-06
  43.120 -0.426E-06 -0.426E-06
  43.130 -0.410E-06 -0.410E-06
  43.140 -0.394E-06 -0.394E-06
  43.150 -0.378E-06 -0.378E-06
  43.160 -0.363E-06 -0.363E-06
  43.170 -0.349E-06 -0.349E-06
  43.180 -0.334E-06 -0.334E-06
  43.190 -0.321E-06 -0.321E-06
  43.200 -0.307E-06 -0.307E-06
  43.210 -0.294E-06 -0.294E-06
  43.220 -0.281E-06 -0.281E-06
  43.230 -0.269E-06 -0.269E-06
  43.240 -0.258E-06 -0.258E-06
  43.250 -0.246E-06 -0.246E-06
  43.260 -0.235E-06 -0.235E-06
  43.270 -0.225E-06 -0.225E-06
  43.280 -0.214E-06 -0.214E-06
  43.290 -0.204E-06 -0.204E-06
  43.300 -0.195E-06 -0.195E-06
  43.310 -0.186E-06 -0.186E-06
  43.320 -0.177E-06 -0.177E-06
  43.330 -0.168E-06 -0.168E-06
  43.340 -0.160E-06 -0.160E-06
  43.350 -0.153E-06 -0.153E-06
  43.360 -0.145E-06 -0.145E-06
  43.370 -0.138E-06 -0.138E-06
  43.380 -0.131E-06 -0.131E-06
  43.390 -0.124E-06 -0.124E-06
  43.400 -0.118E-06 -0.118E-06
  43.410 -0.112E-06 -0.112E-06
  43.420 -0.106E-06 -0.106E-06
  43.430 -0.101E-06 -0.101E-06
  43.440 -0.953E-07 -0.953E-07
  43.450 -0.902E-07 -0.902E-07
  43.460 -0.854E-07 -0.854E-07
  43.470 -0.808E-07 -0.808E-07
  43.480 -0.764E-07 -0.764E-07
  43.490 -0.722E-07 -0.722E-07
  43.500 -0.682E-07 -0.682E-07
  43.510 -0.644E-07 -0.644E-07
  43.520 -0.608E-07 -0.608E-07
  43.530 -0.574E-07 -0.574E-07
  43.540 -0.541E-07 -0.541E-07
  43.550 -0.510E-07 -0.510E-07
  43.560 -0.481E-07 -0.481E-07
  43.570 -0.453E-07 -0.453E-07
  43.580 -0.426E-07 -0.426E-07
  43.590 -0.401E-07 -0.401E-07
  43.600 -0.377E-07 -0.377E-07
  43.610 -0.355E-07 -0.355E-07
  43.620 -0.333E-07 -0.333E-07
  43.630 -0.313E-07 -0.313E-07
  43.640 -0.294E-07 -0.294E-07
  43.650 -0.276E-07 -0.276E-07
  43.660 -0.259E-07 -0.259E-07
  43.670 -0.243E-07 -0.243E-07
  43.680 -0.228E-07 -0.228E-07
  43.690 -0.213E-07 -0.213E-07
  43.700 -0.200E-07 -0.200E-07
  43.710 -0.187E-07 -0.187E-07
  43.720 -0.175E-07 -0.175E-07
  43.730 -0.164E-07 -0.164E-07
  43.740 -0.153E-07 -0.153E-07
  43.750 -0.143E-07 -0.143E-07
  43.760 -0.134E-07 -0.134E-07
  43.770 -0.125E-07 -0.125E-07
  43.780 -0.116E-07 -0.116E-07
  43.790 -0.109E-07 -0.109E-07
  43.800 -0.101E-07 -0.101E-07
  43.810 -0.945E-08 -0.945E-08
  43.820 -0.880E-08 -0.880E-08
  43.830 -0.820E-08 -0.820E-08
  43.840 -0.763E-08 -0.763E-08
  43.850 -0.710E-08 -0.710E-08
  43.860 -0.661E-08 -0.661E-08
  43.870 -0.614E-08 -0.614E-08
  43.880 -0.571E-08 -0.571E-08
  43.890 -0.531E-08 -0.531E-08
  43.900 -0.493E-08 -0.493E-08
  43.910 -0.457E-08 -0.457E-08
  43.920 -0.424E-08 -0.424E-08
  43.930 -0.394E-08 -0.394E-08
  43.940 -0.365E-08 -0.365E-08
  43.950 -0.338E-08 -0.338E-08
  43.960 -0.313E-08 -0.313E-08
  43.970 -0.290E-08 -0.290E-08
  43.980 -0.269E-08 -0.269E-08
  43.990 -0.248E-08 -0.248E-08
  44.000 -0.230E-08 -0.230E-08
  44.010 -0.212E-08 -0.212E-08
  44.020 -0.196E-08 -0.196E-08
  44.030 -0.181E-08 -0.181E-08
  44.040 -0.167E-08 -0.167E-08
  44.050 -0.154E-08 -0.154E-08
  44.060 -0.143E-08 -0.143E-08
  44.070 -0.131E-08 -0.131E-08
  44.080 -0.121E-08 -0.121E-08
  44.090 -0.112E-08 -0.112E-08
